時間[s] x軸周り[deg] y軸周り[deg] z軸周り[deg]
0 0 0 0
0.02 0 0 0
0.07 350.7127 331.0107 352.4041
0.1076634 350.6982 331.0119 352.3911
0.1216465 350.7029 331.0062 352.3939
0.133631 350.7203 330.9921 352.3941
0.1453683 350.7184 330.9903 352.3991
0.1571385 350.7141 331.0032 352.4027
0.1681866 350.7083 330.9975 352.3949
0.1796566 350.7073 330.9977 352.4008
0.1921187 350.6991 331.0093 352.3989
0.202759 350.71 330.9947 352.399
0.2135821 350.7144 330.9962 352.4026
0.2249283 350.7057 330.996 352.3955
0.2361681 350.7128 330.9994 352.3935
0.2471607 350.7037 331.0022 352.3969
0.2580498 350.7134 330.9974 352.4094
0.2688662 350.7125 330.9932 352.3984
0.2795671 350.7161 331.0013 352.3987
0.2904583 350.7201 330.9983 352.397
0.3011835 350.715 330.9993 352.398
0.3118296 350.7239 330.9915 352.3989
0.3228481 350.7164 331 352.3983
0.3337439 350.7149 331.0033 352.4019
0.3448389 350.7128 330.9947 352.3908
0.3569084 350.7223 330.9907 352.4023
0.3676167 350.7184 330.9963 352.398
0.3788122 350.7169 330.9972 352.3958
0.3895756 350.7162 331.0108 352.4017
0.4005556 350.7291 331.0027 352.3957
0.4151697 350.724 330.9987 352.3863
0.4258978 350.7286 331.0016 352.3966
0.4363567 350.7174 331.0034 352.4008
0.4470863 350.724 331.0059 352.394
0.4579468 350.7136 330.9972 352.3942
0.4684411 350.7141 331.0005 352.3988
0.4790924 350.7317 330.9968 352.3908
0.489737 350.7299 330.9919 352.4019
0.5004631 350.7197 330.9942 352.3992
0.5123197 350.7238 330.9982 352.4048
0.5234155 350.7217 331.0082 352.3908
0.5344882 350.7224 330.9986 352.4027
0.5452359 350.7261 331.0049 352.4026
0.5574014 350.7241 331.0074 352.4074
0.5691461 350.709 330.9937 352.4104
0.5811549 350.7075 330.9865 352.4176
0.5930906 350.7211 330.9886 352.4122
0.6056756 350.7255 330.9887 352.4121
0.617421 350.7234 331.0055 352.4109
0.6293832 350.7145 330.9803 352.416
0.6414443 350.7294 330.9895 352.4124
0.653384 350.7067 331.0015 352.3982
0.6654325 350.7173 330.9942 352.4139
0.6770513 350.7204 330.9809 352.4152
0.6882617 350.7125 330.9993 352.4069
0.6993038 350.7195 330.9993 352.4167
0.7102872 350.7292 330.9857 352.3976
0.7215648 350.7123 330.9925 352.4037
0.7327298 350.7307 331.0013 352.3953
0.7437979 350.7176 330.998 352.4126
0.7548243 350.732 331.0035 352.4145
0.7652709 350.7109 331.0044 352.4052
0.7760155 350.7234 330.9893 352.4078
0.7882896 350.7155 331.0006 352.4021
0.7991703 350.7272 330.9912 352.4215
0.8104313 350.7212 330.9913 352.4211
0.8224876 350.7196 330.989 352.4151
0.8336445 350.7236 330.989 352.4137
0.8444869 350.7208 331.0049 352.399
0.8560929 350.7214 330.9946 352.3999
0.8672132 350.7159 330.9833 352.4059
0.8784266 350.7159 330.9893 352.4042
0.8901971 350.7145 330.9932 352.4128
0.9009042 350.7223 330.9846 352.4219
0.9119014 350.7345 330.9796 352.4091
0.9243074 350.7231 330.9854 352.408
0.9348092 350.7336 330.9729 352.3959
0.9452494 350.7231 330.9819 352.4102
0.9560018 350.7194 330.9854 352.4093
0.9665069 350.7292 330.9901 352.4098
0.9770611 350.7309 330.9706 352.4169
0.9879129 350.7063 330.985 352.4127
0.9987947 350.7115 330.9835 352.4002
1.009613 350.7239 330.9951 352.4017
1.020754 350.7209 330.9795 352.4008
1.031758 350.709 330.9907 352.4125
1.043493 350.7184 330.9827 352.412
1.054933 350.7089 330.9822 352.4164
1.065421 350.7182 330.987 352.4124
1.076472 350.7221 330.9832 352.4099
1.087592 350.7091 330.9819 352.42
1.098466 350.7141 330.982 352.4048
1.109604 350.7144 330.9943 352.4077
1.121514 350.7195 330.9877 352.4138
1.132819 350.718 330.992 352.4124
1.143571 350.7106 330.9823 352.4037
1.154616 350.7162 330.9795 352.4117
1.165146 350.7123 330.973 352.4077
1.176089 350.7166 330.9871 352.4186
1.187313 350.7102 330.9779 352.4222
1.199131 350.7043 330.9851 352.4142
1.210288 350.6988 330.9797 352.4146
1.221292 350.6994 330.9839 352.4042
1.232061 350.7161 331.0028 352.412
1.242895 350.7105 330.9759 352.4226
1.254077 350.717 330.9948 352.408
1.264899 350.7116 330.978 352.4148
1.276961 350.7032 330.9833 352.4082
1.288085 350.7134 330.9722 352.4121
1.301063 350.715 330.984 352.4093
1.312553 350.7108 330.9767 352.4165
1.32401 350.6993 330.9843 352.4177
1.335312 350.7104 330.9761 352.416
1.358258 350.7046 330.9742 352.4265
1.368922 350.7124 330.9775 352.4211
1.379685 350.7236 330.9742 352.42
1.390438 350.7141 330.9778 352.4188
1.401142 350.7142 330.9743 352.4316
1.411638 350.7155 330.9824 352.4198
1.422891 350.718 330.9865 352.4086
1.433722 350.7045 330.9813 352.4099
1.444706 350.7078 330.98 352.4129
1.455473 350.7084 330.9845 352.4155
1.466268 350.7202 330.9796 352.4265
1.476787 350.7188 330.9909 352.4158
1.487435 350.7177 330.9747 352.4198
1.498263 350.7254 330.9768 352.424
1.510303 350.7251 330.972 352.4235
1.521453 350.7181 330.9837 352.4111
1.532256 350.7268 330.978 352.4172
1.543165 350.7188 330.9845 352.4165
1.554574 350.7135 330.9773 352.4193
1.566436 350.7081 330.9722 352.4193
1.577042 350.7219 330.9707 352.4337
1.588202 350.714 330.97 352.419
1.599085 350.7213 330.9911 352.4254
1.612436 350.6974 330.9878 352.4043
1.623836 350.7148 330.9803 352.422
1.634693 350.713 330.9816 352.4165
1.645277 350.7159 330.9743 352.413
1.656247 350.713 330.9682 352.4202
1.666737 350.7141 330.9708 352.41
1.677604 350.7274 330.9686 352.4099
1.688643 350.7169 330.9727 352.4067
1.699497 350.7236 330.9781 352.4171
1.71113 350.722 330.9697 352.4247
1.721947 350.7065 330.9669 352.4047
1.732662 350.7163 330.9828 352.4117
1.743621 350.7104 330.9923 352.3988
1.75482 350.7155 330.9868 352.4147
1.765927 350.7202 330.9721 352.4045
1.777235 350.7075 330.9783 352.4244
1.788073 350.7107 330.9718 352.4192
1.799515 350.7149 330.9787 352.4026
1.814169 350.7152 330.9686 352.4128
1.825178 350.7136 330.9806 352.4114
1.83567 350.7136 330.9739 352.415
1.846269 350.7217 330.9821 352.4086
1.856796 350.71 330.9725 352.403
1.867415 350.6982 330.9832 352.4102
1.878001 350.7156 330.9753 352.4081
1.888733 350.7243 330.9792 352.4153
1.899193 350.716 330.973 352.4047
1.9101 350.7154 330.9845 352.4126
1.921262 350.7115 330.9688 352.414
1.933558 350.7285 330.9739 352.4149
1.944226 350.7225 330.9728 352.4178
1.955235 350.7308 330.9798 352.405
1.966026 350.7172 330.9792 352.4216
1.977028 350.7187 330.9742 352.4172
1.98818 350.7215 330.9701 352.4024
1.998995 350.7263 330.9731 352.3979
2.009886 350.7128 330.9785 352.4102
2.021105 350.7047 330.968 352.3986
2.032883 350.7209 330.9757 352.4173
2.043725 350.718 330.9797 352.4105
2.054873 350.703 330.9853 352.4068
2.06572 350.7122 330.9894 352.4039
2.076637 350.7162 330.9839 352.408
2.088068 350.7127 330.9818 352.4202
2.098607 350.7151 330.9792 352.3999
2.110556 350.7156 330.9853 352.4039
2.122188 350.7231 330.982 352.4058
2.133076 350.7112 330.9784 352.4126
2.144176 350.707 330.9722 352.4139
2.155141 350.7253 330.9747 352.4048
2.166208 350.7202 330.989 352.4085
2.176853 350.7209 330.9836 352.408
2.187996 350.7131 330.9798 352.4007
2.198941 350.7238 330.9922 352.4167
2.209862 350.7155 330.9926 352.404
2.221991 350.7194 330.9945 352.4063
2.232775 350.7245 330.9924 352.4114
2.243968 350.712 330.9874 352.3976
2.254955 350.7262 330.9815 352.4085
2.265638 350.7168 330.98 352.4078
2.276592 350.7154 330.977 352.4029
2.287809 350.7163 330.9916 352.3985
2.298668 350.729 330.9914 352.408
2.310523 350.7231 330.9833 352.3917
2.32169 350.7299 330.9856 352.3969
2.332482 350.7179 330.9784 352.4063
2.343464 350.7253 330.9863 352.4123
2.354549 350.7211 330.9824 352.3958
2.36538 350.7318 330.9905 352.3947
2.376323 350.7225 330.9806 352.3889
2.388617 350.7257 330.9968 352.3783
2.39957 350.7164 331.0067 352.3882
2.410242 350.7184 330.9948 352.3925
2.421403 350.7199 330.9945 352.3912
2.432236 350.7126 330.9968 352.3927
2.443195 350.7028 330.9972 352.3914
2.454248 350.723 330.9905 352.3979
2.468951 350.7062 330.9997 352.4004
2.479423 350.7235 330.9935 352.3879
2.490611 350.7146 331.0007 352.3815
2.50114 350.7043 330.994 352.3853
2.511773 350.7135 330.9961 352.3863
2.522633 350.7111 330.9904 352.3841
2.533317 350.7217 330.9994 352.3873
2.544011 350.7099 330.9943 352.4058
2.555332 350.7125 330.9942 352.3885
2.566952 350.7147 330.9991 352.3954
2.578865 350.7213 330.9896 352.3914
2.590796 350.7181 330.9937 352.3766
2.601799 350.7082 331.0012 352.3986
2.612756 350.7078 330.9955 352.3908
2.624149 350.7108 331.0041 352.3962
2.635046 350.7161 330.9972 352.3937
2.646641 350.7228 331.0055 352.374
2.657651 350.7158 331.0134 352.3796
2.668827 350.716 331.0177 352.3776
2.6797 350.7253 331.0084 352.3853
2.690516 350.7189 331.0146 352.3929
2.701632 350.7186 331.0012 352.3873
2.712732 350.7108 331.0126 352.3835
2.727495 350.7113 331.0063 352.3865
2.738303 350.7224 331.0239 352.3799
2.749166 350.7104 331.0251 352.39
2.759687 350.7155 331.007 352.3918
2.770276 350.7145 331.0258 352.3833
2.780691 350.7109 331.0044 352.3885
2.79189 350.7097 331.0223 352.3823
2.802501 350.7238 331.0099 352.391
2.813333 350.7108 331.0058 352.3875
2.825099 350.7087 331.0018 352.3927
2.835843 350.7074 331.0134 352.3985
2.847175 350.7107 331.0219 352.3935
2.858351 350.7195 331.0163 352.3978
2.869098 350.7208 331.0033 352.3978
2.880015 350.7198 331.0169 352.3954
2.891104 350.7255 331.0125 352.3845
2.901979 350.7221 331.0211 352.3945
2.913235 350.7156 331.018 352.3915
2.925454 350.7184 331.0108 352.4026
2.936467 350.7124 331.0202 352.388
2.948003 350.7209 331.013 352.3973
2.960505 350.7108 331.0132 352.3964
2.970962 350.7265 331.0125 352.3987
2.981661 350.7137 331.004 352.3965
2.992871 350.7092 331.0185 352.4013
3.004064 350.7254 331.0174 352.3842
3.014879 350.7128 331.0211 352.395
3.025883 350.7065 331.0138 352.3926
3.036483 350.7108 331.0166 352.3815
3.04696 350.7101 331.0133 352.3911
3.057618 350.7091 331.0091 352.3905
3.068495 350.7169 331.0144 352.4037
3.079539 350.7136 331.0214 352.3953
3.090707 350.7151 331.0178 352.3932
3.101624 350.703 331.0084 352.3985
3.112446 350.7213 331.0003 352.3939
3.124505 350.7193 331.0105 352.409
3.138018 350.7138 331.0129 352.3917
3.14914 350.7216 331.0064 352.3954
3.1601 350.7206 331.0036 352.4114
3.174299 350.7255 330.9989 352.4024
3.185002 350.7148 331.0163 352.4058
3.195403 350.724 331.0043 352.4031
3.206264 350.7149 331.0073 352.4002
3.216678 350.7194 331.0095 352.4117
3.229181 350.7217 331.0169 352.4123
3.239855 350.7143 331 352.4102
3.250335 350.715 330.9993 352.4175
3.260854 350.7216 331.0148 352.4181
3.272014 350.7225 331.0003 352.4216
3.282992 350.7228 331.0126 352.4145
3.293766 350.7237 331.0099 352.4167
3.304349 350.7148 331.0126 352.4104
3.315934 350.714 331.0136 352.4061
3.327184 350.7297 331.0109 352.411
3.33827 350.7204 331.0128 352.4166
3.349693 350.7143 331.0136 352.4102
3.360445 350.7127 331.0028 352.4055
3.371874 350.7146 331.0012 352.4112
3.382771 350.711 331.0055 352.4163
3.394203 350.7235 331.0039 352.4263
3.405118 350.7171 331.0161 352.4118
3.415776 350.7202 331.0099 352.4168
3.426611 350.719 331.0045 352.4238
3.437613 350.7102 330.9904 352.4229
3.448407 350.7059 331.0005 352.4204
3.459349 350.7178 331.0072 352.4098
3.469816 350.7248 331.0023 352.4137
3.48063 350.7134 330.992 352.4221
3.49137 350.7236 330.9985 352.4093
3.501869 350.7259 331.0075 352.4178
3.51336 350.7132 331.0108 352.4178
3.525071 350.729 330.9955 352.4263
3.535902 350.7216 331.0081 352.4063
3.54699 350.7134 330.9998 352.4091
3.559982 350.7241 330.9897 352.43
3.570735 350.7049 331.0038 352.4138
3.582758 350.7165 331.0097 352.424
3.594865 350.7105 330.9975 352.4199
3.606824 350.7297 330.993 352.4251
3.618581 350.7153 330.9993 352.409
3.630631 350.721 330.9987 352.4184
3.642777 350.7067 330.9914 352.4244
3.654684 350.7061 330.9846 352.4169
3.666595 350.7056 330.9862 352.4113
3.67748 350.7051 330.9969 352.4008
3.688844 350.713 330.9931 352.4002
3.699466 350.7027 330.9906 352.4067
3.71041 350.7142 330.9977 352.4095
3.721466 350.7157 330.9916 352.4133
3.733427 350.6951 331.0135 352.4088
3.744389 350.7083 330.9982 352.4196
3.755554 350.7104 330.9906 352.4204
3.76626 350.7099 330.9964 352.4077
3.777278 350.7197 330.9915 352.4136
3.788446 350.6936 330.9874 352.4153
3.799817 350.7047 330.9911 352.4281
3.81113 350.7076 330.9897 352.4273
3.822791 350.7085 331.0063 352.4103
3.834058 350.7146 330.9927 352.4264
3.844617 350.714 330.9909 352.4197
3.855791 350.7101 330.9994 352.4144
3.866584 350.7095 330.9939 352.4253
3.877606 350.7017 330.9977 352.4243
3.888591 350.7123 330.985 352.4196
3.899514 350.7071 330.9947 352.4207
3.910392 350.7067 330.9844 352.4187
3.921498 350.711 330.9897 352.4112
3.933884 350.7141 330.9924 352.4203
3.944905 350.7065 330.9989 352.4259
3.956476 350.7212 331.0064 352.42
3.967148 350.7074 330.984 352.4171
3.977812 350.7013 330.9917 352.4254
3.98907 350.7101 330.9965 352.4206
3.999959 350.7098 330.9901 352.414
4.010767 350.7096 330.975 352.4222
4.021801 350.6964 330.9801 352.4334
4.032723 350.7155 330.9868 352.4285
4.043614 350.7117 331.0001 352.418
4.054655 350.7034 330.9798 352.4261
4.066638 350.7097 330.9838 352.412
4.077548 350.7072 331.0056 352.4214
4.088644 350.7143 330.9908 352.4258
4.099584 350.7001 331.0019 352.4116
4.11062 350.7112 330.9827 352.437
4.121749 350.7041 330.9851 352.417
4.132866 350.7015 330.9872 352.4311
4.144 350.7136 330.9909 352.4305
4.155061 350.7054 331.0007 352.4108
4.166013 350.6999 330.9859 352.4271
4.177817 350.716 330.9849 352.4135
4.188991 350.7109 330.9967 352.423
4.200241 350.7168 330.9837 352.4333
4.210996 350.702 330.9913 352.4283
4.221794 350.7112 330.9941 352.4309
4.23278 350.7051 330.9859 352.4232
4.243591 350.714 330.9724 352.4253
4.255818 350.7052 330.9842 352.4233
4.266779 350.705 330.9894 352.4091
4.2775 350.6952 330.9963 352.4225
4.288621 350.7143 330.986 352.4397
4.299503 350.7085 330.9863 352.4278
4.310427 350.7096 330.9981 352.4361
4.321396 350.7058 331.0031 352.4272
4.333405 350.7192 330.9839 352.4308
4.344377 350.7244 330.9886 352.4346
4.355776 350.7018 331.0032 352.4265
4.36696 350.7021 331.0012 352.427
4.377675 350.7157 330.9871 352.4327
4.389315 350.7164 330.9909 352.4425
4.400349 350.7074 331.0016 352.42
4.41084 350.7044 330.9997 352.4235
4.422562 350.7014 330.9997 352.4394
4.43322 350.708 330.9867 352.4327
4.444079 350.6915 331 352.4374
4.455651 350.7059 331.0055 352.4186
4.467229 350.7022 330.9971 352.4332
4.478338 350.7072 330.9956 352.4366
4.488797 350.7142 330.9867 352.4362
4.499993 350.7219 330.9987 352.4398
4.511209 350.717 330.9982 352.4374
4.522417 350.7186 330.9929 352.4432
4.533067 350.7095 331.002 352.4408
4.543817 350.6989 330.995 352.4243
4.55484 350.7139 331.0046 352.4507
4.568145 350.7138 331.0067 352.4416
4.583441 350.7108 331.0072 352.4382
4.59399 350.7237 330.9936 352.4463
4.604718 350.6912 330.9942 352.4441
4.615623 350.7098 331.0027 352.4546
4.626414 350.7167 330.9988 352.4395
4.636961 350.7113 331.0031 352.4408
4.647686 350.7116 331.0046 352.4279
4.658562 350.7154 331.0088 352.4446
4.669443 350.7136 331.0127 352.4436
4.680464 350.7182 330.9987 352.4477
4.691459 350.7156 331.0015 352.4394
4.703177 350.7165 331.0067 352.434
4.713624 350.7118 331.0028 352.4381
4.725568 350.7213 330.9974 352.4315
4.736521 350.7054 330.998 352.4403
4.747283 350.7187 330.9986 352.4283
4.758266 350.7053 331.002 352.4306
4.769217 350.7134 331.0031 352.4342
4.780156 350.7182 331.0018 352.4286
4.791357 350.7191 330.9959 352.4362
4.803102 350.7179 330.9985 352.427
4.814443 350.7096 330.9879 352.4429
4.825565 350.7169 330.9951 352.4313
4.836865 350.7129 331.0048 352.4316
4.847744 350.7157 330.9967 352.4253
4.858677 350.7196 330.9937 352.4311
4.869197 350.7163 331.0082 352.4309
4.881141 350.7072 330.9999 352.4304
4.892317 350.721 330.9894 352.421
4.902888 350.7274 330.9965 352.4319
4.913798 350.7176 330.9998 352.4128
4.924926 350.7181 331.0045 352.4276
4.935744 350.7143 330.9984 352.4253
4.94718 350.7204 330.9969 352.4286
4.959324 350.714 330.9907 352.4218
4.970554 350.7065 330.9967 352.4394
4.982541 350.7145 330.9837 352.4366
4.994693 350.7159 330.9976 352.4338
5.005447 350.7167 331.004 352.4284
5.016492 350.7074 330.9979 352.4252
5.027846 350.708 330.9926 352.4377
5.038615 350.7101 331.0008 352.4303
5.04939 350.7177 331.0039 352.4259
5.060001 350.7062 331.0049 352.4245
5.070673 350.6984 331.0057 352.4227
5.08138 350.7071 331.0091 352.4222
5.09215 350.7141 330.992 352.4204
5.102472 350.717 330.999 352.4269
5.11342 350.7157 330.9923 352.417
5.125622 350.7087 330.9978 352.4287
5.136397 350.7106 331.005 352.4181
5.147354 350.7014 330.995 352.4234
5.158307 350.7146 330.997 352.4245
5.169495 350.7123 331.005 352.4389
5.180577 350.7177 331.0089 352.4286
5.191414 350.7134 331.0068 352.4315
5.207314 350.7043 330.9997 352.4232
5.218406 350.7095 331.0002 352.4311
5.229232 350.6982 330.9987 352.4317
5.239892 350.7056 330.9912 352.4355
5.250284 350.6998 331.0069 352.4326
5.260879 350.7028 331.0048 352.4376
5.271389 350.7081 330.9995 352.4408
5.282144 350.6992 330.9962 352.427
5.293068 350.7072 331.001 352.4277
5.303579 350.7115 330.9869 352.4357
5.313952 350.6998 330.994 352.425
5.325463 350.7038 331.0067 352.4253
5.336585 350.7061 330.9874 352.4284
5.347461 350.6936 330.9938 352.4394
5.358614 350.6948 330.9936 352.4283
5.369572 350.7032 331.0085 352.435
5.380291 350.7097 331.0052 352.4233
5.391373 350.6989 331.0071 352.4321
5.402225 350.7079 331.0049 352.4264
5.414281 350.695 331.009 352.4258
5.425225 350.7011 330.999 352.4229
5.436299 350.706 331.0024 352.4257
5.447147 350.6989 331.0065 352.4185
5.458223 350.7031 330.9946 352.4286
5.469048 350.6905 331.006 352.4241
5.480217 350.6978 331.0122 352.436
5.492498 350.7069 331.0125 352.4282
5.503004 350.7039 331.0018 352.4288
5.514273 350.697 331.0101 352.4419
5.524975 350.709 331.0079 352.4238
5.536057 350.707 331.0165 352.4341
5.547123 350.7073 331.0009 352.4321
5.557828 350.7074 331.005 352.4261
5.570014 350.7075 331.0119 352.4282
5.580894 350.7104 331.0004 352.4231
5.591876 350.7072 330.9882 352.4176
5.602741 350.7046 331.0001 352.4174
5.61402 350.7195 331.0104 352.4315
5.625134 350.7064 331.0083 352.4236
5.636189 350.713 331.0063 352.433
5.647259 350.7076 331.0008 352.4284
5.658154 350.7182 331.0118 352.4236
5.669307 350.7126 331.0064 352.427
5.680077 350.712 330.995 352.4227
5.692078 350.7054 331.005 352.4053
5.703045 350.7177 331.0041 352.4312
5.714053 350.7265 331.0203 352.4161
5.724947 350.7207 331.0089 352.4219
5.736535 350.7152 330.9998 352.407
5.747468 350.7208 331.0012 352.4368
5.758478 350.7069 331.008 352.4164
5.76939 350.7237 330.9967 352.4151
5.780419 350.713 331.0012 352.4102
5.791408 350.7159 331.0097 352.4186
5.802237 350.7088 331.0042 352.4156
5.814609 350.7193 331.0103 352.4205
5.826177 350.7108 331.0045 352.3984
5.837212 350.7278 330.9989 352.4104
5.848256 350.7219 330.9989 352.429
5.858996 350.7127 330.992 352.4212
5.869321 350.7209 331.0087 352.4179
5.880008 350.7215 330.993 352.4136
5.89204 350.7202 331.0005 352.4215
5.903049 350.7119 330.9975 352.4175
5.914002 350.7232 331.0028 352.4092
5.925097 350.7209 330.9973 352.4187
5.935982 350.7215 330.9932 352.4084
5.946997 350.7279 330.9936 352.4135
5.957887 350.7137 331.007 352.4132
5.969881 350.7195 330.9989 352.4108
5.981045 350.7143 330.9931 352.4161
5.992438 350.7143 331.0055 352.4079
6.003397 350.7217 331.0001 352.4037
6.013999 350.7224 330.9933 352.4176
6.025194 350.7239 330.9946 352.4076
6.035839 350.7184 330.9934 352.4153
6.046565 350.7202 331.0044 352.4079
6.05868 350.7188 330.9926 352.4106
6.06959 350.7109 330.9992 352.4055
6.080871 350.7126 330.9988 352.4092
6.092283 350.7065 331.0053 352.4034
6.102864 350.7143 330.9971 352.4063
6.113506 350.7166 330.9947 352.4171
6.124965 350.7129 331.001 352.4063
6.137015 350.7133 330.9914 352.4018
6.148066 350.7106 331.0044 352.4012
6.159377 350.712 331.0054 352.407
6.170408 350.7097 331.0066 352.4133
6.181296 350.7062 331 352.3999
6.191988 350.7033 331.001 352.3979
6.202428 350.6964 330.9912 352.4131
6.214195 350.7151 331 352.4024
6.225182 350.7144 331.0023 352.3958
6.236251 350.712 330.9886 352.4114
6.247091 350.6989 330.9908 352.4091
6.258098 350.7104 330.998 352.4054
6.26915 350.7088 330.9971 352.4023
6.283412 350.7119 331.005 352.4015
6.29445 350.7047 330.9993 352.3963
6.304831 350.7111 331.0084 352.4041
6.315266 350.7054 331.0113 352.3899
6.327533 350.7065 330.9955 352.3944
6.338449 350.7124 331.0088 352.3892
6.349743 350.7065 331.0011 352.3908
6.360352 350.7188 331.0038 352.3958
6.370891 350.7168 331.0092 352.3945
6.38137 350.7114 331.0083 352.3861
6.392419 350.7165 331.0043 352.394
6.402907 350.7169 331.009 352.3942
6.413738 350.7174 331.0016 352.4024
6.424722 350.7175 330.9964 352.398
6.435663 350.7147 331.0039 352.4062
6.447751 350.7122 330.997 352.4159
6.45897 350.726 331.01 352.4088
6.469839 350.7143 331.0089 352.4082
6.480476 350.7159 331.0134 352.3999
6.491482 350.7153 331.0085 352.385
6.502466 350.7094 331.0095 352.4025
6.513608 350.7214 331.016 352.3957
6.525406 350.7186 331.0074 352.3957
6.536518 350.7221 331.0096 352.399
6.547369 350.7077 331.0086 352.3999
6.558721 350.717 331.0042 352.403
6.569546 350.7102 330.9965 352.3901
6.580112 350.7107 330.995 352.3996
6.591394 350.7094 331.0112 352.4
6.603514 350.7112 331.0216 352.4005
6.618038 350.7125 330.9969 352.417
6.628813 350.7157 331.0089 352.4047
6.639633 350.7116 331.0055 352.4119
6.650399 350.7026 331.0037 352.4191
6.66101 350.7038 331.0146 352.4138
6.671515 350.7128 331.0144 352.4119
6.682141 350.7234 331.0072 352.4137
6.69292 350.7166 331.0006 352.4121
6.703915 350.7139 331.0095 352.4128
6.715178 350.7053 331.0094 352.4159
6.727813 350.7172 330.9959 352.4269
6.739322 350.6984 331.0101 352.4054
6.750156 350.7197 331.013 352.4076
6.764102 350.7097 331.0167 352.4109
6.775906 350.7098 331.0154 352.4015
6.786205 350.7019 331.0063 352.411
6.798082 350.6954 331.0067 352.415
6.813404 350.7079 330.9993 352.4108
6.826391 350.7029 331.0216 352.4113
6.837234 350.7112 331.0181 352.4082
6.847802 350.7146 331.0187 352.3965
6.858654 350.7059 331.0108 352.4089
6.869488 350.7101 331.0118 352.4001
6.880444 350.7145 331.0098 352.4004
6.891473 350.701 331.0136 352.4057
6.902303 350.7008 331.0112 352.4033
6.913529 350.7014 331.0147 352.4082
6.92552 350.7141 331.0207 352.4009
6.93626 350.7053 331.0179 352.3988
6.947258 350.705 331.0186 352.4013
6.958299 350.7088 331.0218 352.4024
6.969211 350.6926 331.0186 352.4057
6.980138 350.6972 331.0189 352.3995
6.991348 350.7029 331.0195 352.399
7.004461 350.7063 331.0254 352.4086
7.015572 350.6951 331.0133 352.4119
7.026339 350.714 331.0051 352.4147
7.036865 350.704 331.0041 352.4101
7.047322 350.6876 331.009 352.4071
7.057971 350.6936 331.0072 352.4148
7.068873 350.6934 331.0176 352.4164
7.081144 350.6987 331.0121 352.4203
7.091914 350.7038 331.0228 352.4143
7.102855 350.6948 331.0158 352.4072
7.113819 350.6984 331.0047 352.4091
7.124857 350.6992 331.0112 352.4166
7.135696 350.6952 331.0204 352.4153
7.147189 350.7061 331.0243 352.4062
7.158231 350.6947 331.0146 352.4102
7.169402 350.6929 331.0219 352.4037
7.180466 350.7039 331.0235 352.4049
7.191715 350.6894 331.023 352.4007
7.20888 350.6888 331.0074 352.4123
7.223824 350.7122 331.0113 352.3941
7.23639 350.7029 331.0243 352.4144
7.248436 350.7135 331.0007 352.4012
7.259323 350.7076 331.0164 352.3931
7.270014 350.7141 331.0069 352.4042
7.281028 350.7098 331.0159 352.4065
7.292511 350.7044 331.0254 352.4143
7.303055 350.7084 331.0057 352.4143
7.314014 350.7109 331.0044 352.41
7.325083 350.7033 331.0163 352.4085
7.336034 350.7002 331.015 352.4172
7.347202 350.7084 330.9938 352.4181
7.358652 350.7009 331.0164 352.4106
7.369639 350.7046 331.0098 352.4143
7.380284 350.7116 331.0066 352.4149
7.391654 350.7086 331.0094 352.4187
7.403215 350.6998 330.9895 352.4219
7.414618 350.7082 331.0065 352.4147
7.426076 350.7107 331.0092 352.4154
7.437364 350.709 331.0063 352.4191
7.448576 350.7029 330.999 352.4207
7.460195 350.7137 330.9993 352.4124
7.472255 350.7071 331.0086 352.4128
7.483862 350.7149 331.0015 352.4086
7.495081 350.719 330.997 352.416
7.506331 350.7178 330.9919 352.4215
7.517663 350.7071 331.0032 352.4138
7.528729 350.7107 331.0054 352.4155
7.539567 350.703 330.9934 352.4195
7.551652 350.709 331.0048 352.4178
7.565531 350.6993 331.0045 352.4265
7.576107 350.7104 331.0084 352.4152
7.586559 350.7063 330.9925 352.419
7.597106 350.7112 330.9991 352.4177
7.60844 350.7115 331.0036 352.4131
7.618825 350.7113 330.9894 352.4138
7.629581 350.7067 330.9996 352.4068
7.640281 350.7111 330.995 352.4131
7.651205 350.7083 330.9953 352.4181
7.66199 350.7092 330.9911 352.4084
7.672338 350.7086 330.994 352.4084
7.683082 350.7059 330.9949 352.4168
7.69394 350.7163 330.9933 352.4066
7.70558 350.6995 330.9959 352.4122
7.71618 350.7014 330.9882 352.416
7.726855 350.7045 330.9994 352.4143
7.737892 350.713 331.0019 352.4224
7.74944 350.7126 330.9961 352.4133
7.760615 350.7132 330.9943 352.4149
7.771103 350.718 330.9965 352.4212
7.781593 350.7155 330.9936 352.4251
7.792415 350.7183 330.9918 352.4195
7.803043 350.7119 330.9816 352.4111
7.814289 350.7235 330.9904 352.4233
7.825486 350.7095 330.982 352.4229
7.836426 350.713 330.9995 352.4149
7.84735 350.7191 331.0005 352.4153
7.858647 350.7139 331.0006 352.4187
7.869242 350.7184 330.9805 352.4219
7.880389 350.7209 330.9994 352.4183
7.891301 350.7215 330.9983 352.4177
7.902272 350.7126 331.0021 352.4153
7.914241 350.7166 331.0041 352.4091
7.925296 350.71 330.9971 352.4168
7.936354 350.7161 331.0004 352.4154
7.947198 350.7086 330.9893 352.4135
7.958135 350.7159 330.9944 352.4112
7.96909 350.7137 330.9922 352.4305
7.980472 350.7119 330.9954 352.4114
7.992029 350.7224 330.9944 352.4042
8.002945 350.7083 330.9946 352.4196
8.015745 350.7065 330.9917 352.4136
8.027039 350.7074 330.9826 352.4247
8.037825 350.7153 330.9958 352.4263
8.048392 350.7159 331.0063 352.4184
8.059369 350.7133 331.0126 352.4053
8.070623 350.7217 331.0015 352.4152
8.081427 350.7232 330.9951 352.4019
8.092449 350.703 330.9925 352.4233
8.103356 350.7072 330.995 352.4054
8.114647 350.7132 330.9918 352.4067
8.125411 350.7154 330.9974 352.4199
8.135827 350.7173 330.9998 352.4091
8.147724 350.7162 330.9874 352.4112
8.158641 350.7228 330.9964 352.4033
8.16988 350.711 330.9977 352.4036
8.180496 350.7041 331.0029 352.4038
8.191795 350.7068 330.9962 352.4055
8.203083 350.7101 330.9903 352.4003
8.213593 350.713 330.9944 352.4171
8.225425 350.7126 330.998 352.4117
8.236367 350.7172 330.9998 352.4139
8.247293 350.7037 330.9946 352.4137
8.258924 350.7072 331.0019 352.412
8.269691 350.7072 331.0016 352.4124
8.280861 350.7066 331.0078 352.4156
8.296073 350.7105 330.9968 352.4111
8.307083 350.7025 331.0013 352.4185
8.32486 350.7067 330.9925 352.4195
8.338822 350.7026 331.0054 352.4214
8.35161 350.7076 331.0156 352.4159
8.36962 350.707 331.0021 352.4159
8.381602 350.7067 331.0071 352.4176
8.392852 350.7178 331.0239 352.4218
8.403992 350.7143 331.0228 352.4069
8.415002 350.7084 331.0181 352.4111
8.426596 350.7149 331.0106 352.4092
8.44366 350.7144 331.011 352.4084
8.454314 350.7103 331.0143 352.4121
8.46533 350.7004 331.0085 352.4078
8.477068 350.7186 331.0114 352.4163
8.487883 350.7123 331.0114 352.4107
8.503207 350.718 331.007 352.3989
8.51489 350.7119 331.0032 352.4121
8.526194 350.7093 331.0146 352.4173
8.537249 350.7091 331.0143 352.4169
8.548408 350.7139 331.0053 352.4208
8.559352 350.706 331.0122 352.412
8.570134 350.7113 331.0068 352.4023
8.580939 350.7303 331.0136 352.4135
8.59248 350.721 331.0011 352.4103
8.603552 350.7111 330.9924 352.4183
8.614491 350.7133 330.9954 352.4109
8.625803 350.714 331.0049 352.4061
8.638673 350.7128 330.995 352.4101
8.64953 350.7076 331.0024 352.4181
8.660979 350.7206 331.0012 352.4174
8.671626 350.7213 330.9934 352.4181
8.68295 350.7177 331.0068 352.4109
8.69437 350.7086 330.9943 352.4062
8.704898 350.7133 331.0117 352.4108
8.715543 350.7264 331.0025 352.4073
8.726102 350.7164 330.9931 352.4121
8.736679 350.7176 330.9962 352.4169
8.747405 350.72 331.0075 352.4113
8.758606 350.7193 331.0063 352.4202
8.769745 350.7252 330.9944 352.4045
8.780796 350.7165 331.0065 352.395
8.792006 350.7195 331.0081 352.4012
8.802782 350.7033 331.0013 352.3969
8.813653 350.7181 331.0113 352.4082
8.825419 350.7199 331.0172 352.4055
8.836237 350.7196 331.0184 352.3969
8.847669 350.7186 331.0105 352.4082
8.859061 350.7276 331.0177 352.4014
8.869973 350.7168 331.0175 352.4116
8.88109 350.7149 331.022 352.3991
8.892021 350.7174 331.0162 352.4025
8.902864 350.7064 331.006 352.4124
8.914359 350.7154 331.018 352.4036
8.925114 350.7104 331.0141 352.4157
8.936849 350.724 331.0305 352.3985
8.947468 350.7108 331.0129 352.4023
8.95818 350.7102 331.0145 352.4151
8.969702 350.7209 331 352.4099
8.983813 350.7196 331.0082 352.3986
8.995422 350.7125 331.0109 352.4129
9.006047 350.7237 331.0275 352.4095
9.016877 350.717 331.0202 352.402
9.027623 350.7157 331.0135 352.4115
9.03847 350.7053 331.0106 352.4109
9.049037 350.7142 331.0074 352.4012
9.060212 350.7189 331.0167 352.4003
9.072785 350.7177 331.0114 352.405
9.084105 350.708 331.0134 352.4037
9.095149 350.7015 331.0121 352.4175
9.105908 350.7097 331.0229 352.4025
9.120247 350.7076 331.0176 352.4142
9.131326 350.7114 331.0243 352.4126
9.141911 350.7141 331.0092 352.4204
9.152318 350.718 331.0152 352.4142
9.162992 350.7251 331.0073 352.4183
9.173783 350.7141 331.0221 352.4085
9.184209 350.7165 331.0164 352.4073
9.194757 350.7104 331.0054 352.4164
9.210784 350.7088 331.0084 352.413
9.221454 350.7155 331.0164 352.4084
9.231935 350.7145 331.0103 352.3984
9.242658 350.6993 331.0172 352.4039
9.253153 350.7153 331.006 352.4098
9.264228 350.7132 331.0158 352.4038
9.275254 350.7131 331.0048 352.3979
9.285664 350.7053 331.0107 352.4093
9.296516 350.7164 331.0138 352.4157
9.307185 350.712 331.0103 352.4207
9.317597 350.7176 331.014 352.4156
9.328265 350.7184 331.0201 352.4167
9.339077 350.7248 331.0241 352.4093
9.350151 350.7155 331.0058 352.4112
9.360768 350.718 331.0146 352.4114
9.371406 350.7164 331.0146 352.415
9.381775 350.7085 331.0054 352.4136
9.392994 350.7122 331.0121 352.4075
9.40378 350.7182 331.0164 352.4147
9.414631 350.7163 331.019 352.4088
9.425476 350.7073 331.0101 352.4225
9.436441 350.7142 331.0078 352.4028
9.447415 350.718 330.9899 352.4174
9.458434 350.7072 331.0125 352.4156
9.469362 350.7255 331.0177 352.4149
9.48045 350.714 330.9985 352.4126
9.491614 350.7103 331.0103 352.4128
9.50219 350.71 331.0068 352.4038
9.513282 350.6988 331.0077 352.4172
9.525241 350.7143 331.011 352.4124
9.536228 350.7066 331.007 352.412
9.547191 350.7197 331.0171 352.4163
9.558217 350.7214 331.0068 352.4092
9.56932 350.7198 331.0002 352.4108
9.580078 350.7047 331.0053 352.4174
9.591103 350.709 331.0087 352.4131
9.603297 350.7103 330.9999 352.4316
9.614092 350.7029 331.0084 352.4102
9.625175 350.717 330.9977 352.4143
9.635929 350.7094 331.0167 352.4179
9.647007 350.7062 331.0128 352.4201
9.657864 350.7043 330.9996 352.4156
9.668918 350.7103 331.0005 352.4128
9.680808 350.7041 331.0161 352.4162
9.691767 350.7062 331.0143 352.4151
9.702735 350.7235 331.0165 352.4053
9.713816 350.7137 331.0069 352.4238
9.724998 350.7135 330.9965 352.4195
9.735647 350.714 331.0076 352.4149
9.746581 350.7057 331.0031 352.4222
9.758703 350.7124 331.0079 352.416
9.769554 350.7118 330.9996 352.4243
9.780573 350.7093 331.0118 352.418
9.791548 350.721 330.9999 352.4129
9.802629 350.7072 330.9926 352.4204
9.813926 350.713 331.0125 352.4178
9.824718 350.6974 331.0013 352.4211
9.836399 350.7071 330.9945 352.4205
9.847371 350.7126 330.9928 352.4179
9.858322 350.7071 330.9908 352.4231
9.869681 350.705 330.9887 352.4382
9.880854 350.7062 331.0045 352.4251
9.892146 350.7076 331.0069 352.408
9.904737 350.7031 331.0113 352.4186
9.915833 350.7073 331.014 352.421
9.926887 350.7057 330.9968 352.4225
9.937787 350.7114 330.9966 352.4223
9.948581 350.7042 331.0008 352.4181
9.959124 350.6909 330.9954 352.4259
9.969543 350.7001 331.0062 352.4249
9.97998 350.7165 331.0009 352.4214
9.992046 350.7118 331.0057 352.4231
10.00299 350.7082 331.0135 352.4159
10.01406 350.7112 331.004 352.4203
10.02494 350.714 331.0134 352.4156
10.03632 350.7088 331.0056 352.4326
10.04743 350.7058 331.0076 352.4148
10.05822 350.7031 331.0014 352.4201
10.06988 350.705 331.0022 352.421
10.08076 350.7153 331.0059 352.4284
10.09177 350.707 330.9983 352.4167
10.10285 350.7114 331.0015 352.4204
10.11367 350.71 331.0051 352.423
10.12477 350.723 331.0031 352.4105
10.13606 350.7119 331.0008 352.421
10.14654 350.7216 331.0049 352.421
10.15859 350.7096 330.9932 352.417
10.17006 350.7089 331.0002 352.4244
10.18102 350.7108 331.0003 352.4185
10.1922 350.717 331.0005 352.4261
10.20299 350.7087 331.0008 352.4252
10.21399 350.7067 330.9898 352.4389
10.22509 350.7126 330.9955 352.4265
10.23584 350.7108 330.9903 352.4389
10.24688 350.7166 330.9863 352.4366
10.25804 350.718 330.9869 352.441
10.27049 350.7219 330.9926 352.4329
10.28132 350.7141 330.9779 352.4379
10.29177 350.7191 331.0073 352.4274
10.30272 350.7093 331.0052 352.4233
10.31368 350.7178 330.9963 352.4156
10.32463 350.7215 331.0049 352.4293
10.33556 350.7222 330.9942 352.4343
10.34704 350.715 330.9971 352.439
10.35861 350.7199 330.9939 352.4318
10.3695 350.7131 330.9957 352.4321
10.38056 350.7255 330.9949 352.4349
10.3917 350.7173 330.9952 352.4394
10.40281 350.7252 330.9894 352.4271
10.41336 350.7113 330.9864 352.4421
10.42485 350.7201 330.9936 352.4325
10.43631 350.7007 330.9968 352.4395
10.44748 350.7211 331.0019 352.4358
10.45831 350.7178 330.9979 352.4362
10.46983 350.7141 330.9958 352.4327
10.48076 350.7119 330.9876 352.4345
10.49181 350.7147 330.9886 352.4286
10.50285 350.7201 330.9914 352.4299
10.51365 350.7212 330.9844 352.4358
10.52815 350.7117 330.9946 352.436
10.53895 350.733 330.9894 352.4255
10.54957 350.7212 330.9896 352.4318
10.56018 350.7077 330.9765 352.4308
10.57065 350.7266 330.9854 352.43
10.58226 350.7164 330.9884 352.4227
10.59283 350.7173 330.9895 352.4243
10.60315 350.7092 330.9744 352.4362
10.61378 350.7101 330.9783 352.428
10.62542 350.7131 330.991 352.4215
10.63656 350.7122 330.9875 352.4142
10.64749 350.7172 330.9951 352.4238
10.65991 350.7208 331.0053 352.4241
10.67298 350.7146 330.9918 352.4283
10.68529 350.7082 330.989 352.4282
10.69679 350.7088 330.994 352.4295
10.71005 350.7034 330.9926 352.4256
10.72097 350.7051 330.9935 352.4356
10.73164 350.715 330.9997 352.4173
10.74214 350.7072 331.0016 352.4371
10.75274 350.7182 331.0044 352.4219
10.76368 350.7085 330.9933 352.4295
10.77427 350.7031 330.9922 352.4424
10.78525 350.7109 331.0042 352.428
10.79592 350.7195 330.9934 352.4278
10.80645 350.7123 330.9939 352.4234
10.8175 350.7225 330.9942 352.4244
10.82813 350.7137 331.002 352.4232
10.83888 350.7183 330.9972 352.4332
10.8499 350.7035 330.9941 352.4297
10.86441 350.7022 330.9982 352.4281
10.87584 350.7042 330.9965 352.4256
10.88647 350.7164 330.9935 352.4267
10.89732 350.708 331.0011 352.4507
10.90815 350.7057 331.0012 352.4203
10.91863 350.7051 331.0006 352.447
10.92904 350.7112 331.0091 352.4377
10.93948 350.712 330.9938 352.432
10.95055 350.7148 330.9976 352.4456
10.96121 350.7072 331.0059 352.4383
10.97175 350.706 331.0079 352.4433
10.98237 350.713 331.0119 352.4425
10.99314 350.709 331.0094 352.4328
11.00366 350.7016 330.9944 352.449
11.01533 350.7065 331.0005 352.4472
11.02722 350.7112 331.0047 352.4439
11.04022 350.7182 330.9998 352.4384
11.05286 350.7126 330.9983 352.4383
11.06597 350.7165 330.992 352.451
11.07843 350.7161 331.0038 352.4378
11.08908 350.7079 330.9933 352.4252
11.10135 350.7084 331 352.4507
11.11234 350.7047 331.0082 352.4347
11.12322 350.7139 331.0002 352.4352
11.13425 350.7195 331.0114 352.4343
11.14509 350.7181 330.9923 352.4448
11.1553 350.7165 330.9951 352.4334
11.166 350.7158 330.9932 352.4272
11.17696 350.727 330.9957 352.4255
11.1907 350.7247 331.0017 352.4324
11.20106 350.7183 331.0041 352.4292
11.21161 350.703 331.0096 352.4308
11.22239 350.7234 331.0049 352.4342
11.23286 350.7221 331.0101 352.4395
11.2431 350.721 331.0066 352.4313
11.25355 350.7193 331.0074 352.4385
11.26395 350.7065 331.0086 352.4383
11.27477 350.7139 331.0056 352.4445
11.28524 350.7222 331.0067 352.4393
11.29575 350.719 331.0027 352.4423
11.30606 350.7135 331.0216 352.4392
11.31657 350.7159 331.0173 352.4339
11.32702 350.7248 331.0052 352.4377
11.33825 350.7161 330.9908 352.434
11.34898 350.7241 331.0225 352.4434
11.35939 350.7206 331.0047 352.4322
11.36993 350.7165 331.0027 352.4324
11.38061 350.7108 331.0113 352.428
11.39139 350.7182 331.0016 352.4373
11.40259 350.7209 330.9954 352.4318
11.4148 350.7173 330.9985 352.4436
11.42818 350.7134 330.996 352.4343
11.43925 350.7086 331.0049 352.4237
11.45241 350.7348 331.0021 352.4281
11.4642 350.7244 330.9973 352.4401
11.4751 350.7252 331.0058 352.4209
11.48589 350.7159 330.9973 352.4366
11.49629 350.7243 330.9891 352.435
11.50683 350.7095 330.993 352.4365
11.51765 350.7272 330.9902 352.44
11.52805 350.7198 331.0019 352.427
11.53887 350.7125 331.0042 352.4407
11.54971 350.7176 331.0068 352.4437
11.56066 350.7186 331.0047 352.4335
11.57106 350.7225 331.0076 352.438
11.58241 350.7133 331.0193 352.4285
11.59336 350.7146 331.0068 352.4374
11.60407 350.7127 331.0051 352.4418
11.61465 350.721 331.0099 352.438
11.62557 350.7076 331.004 352.4389
11.63663 350.7149 331.0207 352.4337
11.64787 350.7187 331.0064 352.4338
11.65888 350.7222 331.017 352.4211
11.66973 350.727 331.0088 352.4391
11.68136 350.7268 331.0072 352.4375
11.69207 350.7165 331.0093 352.4286
11.70297 350.717 331.0037 352.4372
11.71403 350.7119 331.0053 352.4372
11.72498 350.7216 330.9991 352.4342
11.73617 350.7153 331.0111 352.437
11.74687 350.7124 331.0135 352.4328
11.75811 350.7079 331.0123 352.4333
11.76877 350.7186 331.0094 352.4318
11.78118 350.7161 331.0087 352.4341
11.79263 350.7135 331.0232 352.4129
11.80332 350.7108 331.0022 352.4319
11.81528 350.7206 331.0085 352.4287
11.82722 350.7082 331.0146 352.4298
11.83974 350.7099 331.0011 352.4395
11.85118 350.7095 331.0079 352.438
11.8623 350.7156 331.0092 352.4347
11.87336 350.7187 331.0211 352.4372
11.88424 350.7153 331.0005 352.4331
11.89511 350.7078 331.0132 352.4312
11.90565 350.7185 331.0035 352.424
11.91642 350.7234 331.0167 352.4307
11.92699 350.7236 331.0129 352.4389
11.93751 350.7073 331.0137 352.4287
11.94809 350.7111 331.0045 352.4397
11.95903 350.7208 331.0166 352.4326
11.96967 350.7167 331.014 352.4345
11.98061 350.711 331.0122 352.4314
11.99164 350.7183 330.9985 352.43
12.00254 350.7102 331.0093 352.4326
12.01353 350.7224 330.9944 352.441
12.02448 350.7222 331.0029 352.4337
12.03642 350.7172 330.9992 352.4354
12.04765 350.7202 330.9921 352.4339
12.05846 350.7044 331.0067 352.4336
12.06961 350.718 331 352.4334
12.08041 350.7119 331.0133 352.4313
12.09186 350.7198 331.0041 352.4326
12.10303 350.708 331.0029 352.439
12.11423 350.7208 330.9969 352.4396
12.12532 350.7192 331.0064 352.4444
12.13628 350.7056 331.0091 352.4312
12.14723 350.7256 331.0096 352.4421
12.15817 350.7114 331.0052 352.4394
12.1692 350.7232 331.0049 352.4293
12.18062 350.7122 331.0031 352.438
12.19303 350.712 331.0174 352.4286
12.20453 350.7111 330.9946 352.4391
12.21536 350.7064 330.98 352.4345
12.22697 350.7043 331.0159 352.4343
12.23883 350.715 331.0027 352.4248
12.25034 350.7154 331.0057 352.4274
12.26107 350.7062 331.0009 352.4319
12.27156 350.7127 331.003 352.422
12.2826 350.7134 330.9925 352.4316
12.29346 350.7195 331.0026 352.4308
12.30384 350.7112 331.0064 352.4259
12.3145 350.7125 330.9874 352.4189
12.32535 350.7152 331.0046 352.4288
12.33629 350.7094 330.9968 352.4316
12.34809 350.7157 330.9966 352.4299
12.35924 350.7092 331.0004 352.436
12.37017 350.7171 331.0042 352.4295
12.38076 350.7107 331.006 352.4208
12.39172 350.7103 331.008 352.4281
12.40243 350.7113 331.01 352.4315
12.41379 350.7211 331.0109 352.4307
12.42473 350.7098 331.0168 352.4375
12.43651 350.716 331.0157 352.4159
12.44755 350.7094 331.0049 352.4154
12.45856 350.701 331.0149 352.4135
12.47057 350.707 331.0052 352.4237
12.48108 350.7141 330.9995 352.4193
12.4915 350.7008 331.0106 352.4144
12.50208 350.7067 331.0047 352.4301
12.51451 350.7071 331.0138 352.417
12.5256 350.7126 331.0222 352.4179
12.53681 350.7116 331.0124 352.4188
12.54727 350.7119 331.0019 352.419
12.55832 350.7177 331.0045 352.412
12.56901 350.7184 331.0143 352.4115
12.58375 350.7086 331.0163 352.4198
12.59534 350.7067 331.0151 352.4163
12.60688 350.7045 331.0009 352.4243
12.61919 350.7256 331.0233 352.4099
12.63042 350.7161 331.0007 352.4153
12.64091 350.7238 331.0031 352.4176
12.65313 350.7046 331.0156 352.4168
12.6642 350.7161 331.0156 352.4276
12.67502 350.7207 331.0119 352.4297
12.68552 350.7087 331.0051 352.408
12.69618 350.7185 331.0122 352.4181
12.70681 350.72 330.9961 352.4177
12.71725 350.7214 330.9991 352.4181
12.72828 350.7081 330.9912 352.4229
12.73915 350.7276 330.9955 352.4034
12.74954 350.7191 331.0059 352.4088
12.7602 350.7136 331.0057 352.4144
12.77093 350.7164 331.0083 352.409
12.78174 350.7143 330.9956 352.396
12.79252 350.7099 331.0197 352.4131
12.80304 350.7191 331.0129 352.415
12.81372 350.7208 331.0046 352.412
12.82567 350.7283 331.0036 352.4158
12.83654 350.7188 331.009 352.4095
12.84755 350.7191 331.0005 352.4158
12.85834 350.7242 331.0116 352.4065
12.86942 350.7248 331.0057 352.4154
12.88023 350.7182 330.9926 352.4134
12.89157 350.7118 330.9921 352.4243
12.90245 350.708 331.0044 352.4148
12.91352 350.7135 330.9958 352.4212
12.92453 350.7215 331.0045 352.4017
12.93682 350.7129 331.0033 352.4046
12.94802 350.712 330.9956 352.4188
12.96017 350.7122 331.0038 352.4084
12.97124 350.7188 330.9895 352.4192
12.98444 350.7186 330.9969 352.4233
12.99639 350.7195 330.997 352.4131
13.00685 350.7193 331.0106 352.4216
13.01756 350.7116 330.9946 352.4266
13.02853 350.7102 331.0037 352.4183
13.03959 350.7174 331.0037 352.4191
13.05036 350.7142 330.9973 352.4252
13.0609 350.7045 331.0061 352.4196
13.0731 350.7125 330.9932 352.4298
13.08397 350.7203 330.9919 352.4249
13.09609 350.7192 331.0061 352.42
13.1074 350.7084 330.9883 352.4363
13.11803 350.7089 330.994 352.4287
13.12858 350.7188 330.9832 352.4178
13.13972 350.7135 330.9931 352.4262
13.1508 350.7065 330.9825 352.4261
13.16148 350.7118 330.9867 352.4204
13.17186 350.7159 330.9846 352.4238
13.18236 350.7191 330.9901 352.4181
13.19628 350.7074 331.0033 352.4264
13.20756 350.706 330.9957 352.412
13.21804 350.7217 330.9911 352.4194
13.22847 350.7028 330.9849 352.4123
13.23898 350.7114 330.9938 352.4275
13.24946 350.7138 331.0015 352.432
13.25997 350.7091 330.9901 352.4336
13.27035 350.7167 330.9924 352.4264
13.28121 350.7167 330.9906 352.4277
13.2921 350.7166 330.9902 352.4337
13.30287 350.7191 330.9914 352.423
13.31388 350.7145 330.9866 352.4286
13.32483 350.7205 330.9919 352.4331
13.33712 350.7156 331.0027 352.4319
13.34891 350.704 330.9918 352.4255
13.36081 350.7093 330.9906 352.4165
13.37214 350.7066 330.9926 352.4275
13.38383 350.7015 330.9843 352.4246
13.39461 350.712 330.9932 352.4246
13.40539 350.7176 330.9957 352.4336
13.41615 350.704 330.9859 352.4228
13.42685 350.7031 330.9922 352.4269
13.43761 350.703 330.9876 352.4213
13.44864 350.7039 331.0031 352.4094
13.45964 350.7111 330.9973 352.4308
13.46992 350.7008 330.9994 352.4307
13.48074 350.7224 330.9944 352.4199
13.49209 350.7177 330.996 352.4207
13.50256 350.7071 330.985 352.4218
13.5137 350.7076 330.9892 352.4421
13.52463 350.7117 330.9861 352.4296
13.53555 350.7059 330.9936 352.4281
13.54752 350.7108 330.9846 352.425
13.55847 350.7034 330.986 352.4216
13.56941 350.7215 330.9972 352.4301
13.58057 350.7029 330.9893 352.4163
13.59199 350.7122 330.9861 352.4237
13.60307 350.7112 330.9947 352.431
13.61388 350.6991 330.9923 352.4133
13.62506 350.716 330.9985 352.4321
13.63582 350.7143 330.9955 352.4196
13.64668 350.7091 330.9958 352.4208
13.65777 350.7209 331.0024 352.4288
13.66967 350.7159 330.995 352.4252
13.68161 350.71 330.9904 352.43
13.6935 350.722 330.9919 352.4242
13.70567 350.7193 330.99 352.4339
13.71723 350.7229 330.9893 352.4259
13.72902 350.7132 331.0012 352.4335
13.73967 350.7135 330.9944 352.424
13.75015 350.7041 330.9839 352.4226
13.76109 350.7171 330.9777 352.4316
13.77181 350.7205 330.9884 352.4269
13.78277 350.7056 330.9925 352.4211
13.79402 350.7219 330.9846 352.4344
13.80768 350.7113 330.9872 352.4308
13.81918 350.7321 330.9865 352.4318
13.83005 350.7193 330.9859 352.4254
13.84095 350.718 330.986 352.441
13.85634 350.719 330.9818 352.4319
13.86685 350.7126 330.9965 352.4284
13.87723 350.7269 330.9857 352.4329
13.88769 350.7103 330.9846 352.4243
13.89902 350.7165 330.9814 352.4344
13.90944 350.7147 330.9944 352.4341
13.92012 350.7159 330.992 352.4428
13.93064 350.72 330.9915 352.4185
13.94104 350.7223 330.982 352.4285
13.95149 350.7184 330.98 352.4348
13.962 350.7081 330.9994 352.4254
13.97227 350.7231 330.9836 352.4343
13.98288 350.7274 330.9847 352.4309
13.9935 350.7132 330.9912 352.4095
14.00388 350.7194 330.9848 352.4173
14.01443 350.7169 330.9894 352.4155
14.02523 350.7199 330.9811 352.4309
14.03594 350.7182 330.9947 352.4203
14.04665 350.7145 330.9905 352.4147
14.05865 350.7228 330.9985 352.422
14.06966 350.7283 330.981 352.4277
14.08143 350.718 330.9769 352.4263
14.09257 350.7303 330.9871 352.4257
14.10511 350.7226 330.9907 352.4147
14.1171 350.7175 330.9982 352.4168
14.12975 350.7167 330.9884 352.4141
14.14107 350.7309 330.9925 352.4171
14.15191 350.7222 330.9907 352.4192
14.16263 350.7212 330.9874 352.4075
14.17342 350.7141 330.998 352.428
14.18398 350.7165 330.9863 352.412
14.19465 350.7138 331.0019 352.4094
14.20569 350.7198 330.9924 352.4063
14.21692 350.7213 330.99 352.4091
14.22789 350.7174 330.9833 352.412
14.23893 350.72 330.9904 352.4045
14.24965 350.7326 330.9871 352.4155
14.26034 350.7209 330.9906 352.4117
14.27084 350.7184 330.9817 352.4214
14.28116 350.7158 330.9861 352.4187
14.29178 350.7337 330.9834 352.421
14.30295 350.7139 330.9771 352.4178
14.31408 350.7211 330.9865 352.4217
14.32488 350.735 330.9807 352.4234
14.33588 350.7211 330.9768 352.414
14.34704 350.7284 330.9841 352.4239
14.35786 350.7259 330.9781 352.4199
14.36876 350.7252 330.976 352.4207
14.38077 350.721 330.9785 352.4222
14.39206 350.7151 330.9814 352.4173
14.40345 350.7195 330.9897 352.4174
14.41436 350.7184 330.9904 352.4204
14.42483 350.7152 330.9845 352.4086
14.43567 350.7284 330.9857 352.4112
14.44662 350.7249 330.9816 352.4034
14.45859 350.7189 330.9752 352.4224
14.46976 350.7236 330.9815 352.4009
14.48133 350.7265 330.9866 352.4081
14.49227 350.7181 330.969 352.4104
14.50314 350.7233 330.98 352.4123
14.51552 350.7179 330.9736 352.4059
14.52707 350.7155 330.9795 352.4164
14.53929 350.7105 330.9768 352.4143
14.55044 350.7122 330.9729 352.4178
14.56188 350.7178 330.9834 352.4066
14.57252 350.7072 330.9957 352.4091
14.58317 350.7103 330.9994 352.4099
14.59449 350.7153 330.9909 352.414
14.60584 350.7084 330.9899 352.4137
14.61722 350.7143 330.9847 352.4087
14.62847 350.7148 330.9818 352.4022
14.64063 350.7066 330.9809 352.4115
14.65108 350.7165 330.994 352.4012
14.66184 350.7145 330.9825 352.4054
14.6727 350.7116 330.9876 352.3989
14.6833 350.7138 330.9895 352.4086
14.69394 350.7065 331.0021 352.4172
14.70604 350.7139 331.0016 352.4082
14.71695 350.7172 330.9897 352.412
14.72776 350.7064 330.9872 352.4156
14.73902 350.7201 330.9988 352.3957
14.75042 350.7101 330.9893 352.4198
14.76211 350.723 331.0038 352.4112
14.77421 350.7101 330.9922 352.4127
14.78594 350.7094 330.993 352.4057
14.79794 350.7205 330.9959 352.4106
14.80962 350.7059 330.9861 352.4127
14.8215 350.7094 330.9991 352.403
14.83272 350.7068 330.9964 352.3951
14.84391 350.7112 331.0021 352.4
14.85479 350.6951 330.997 352.4072
14.86602 350.7051 330.9918 352.4136
14.87686 350.7048 330.9927 352.4045
14.88755 350.7104 330.9901 352.4151
14.89856 350.7069 330.9985 352.4073
14.90965 350.6999 330.9918 352.4085
14.92089 350.6974 331.0001 352.4094
14.93232 350.7007 330.9872 352.403
14.94325 350.6971 330.9917 352.4037
14.95551 350.7119 330.9928 352.4066
14.96674 350.7049 330.9967 352.402
14.97822 350.7163 330.9932 352.4003
14.9903 350.708 330.9944 352.4026
15.00207 350.7194 331.0008 352.3989
15.01337 350.7075 330.9929 352.3931
15.0251 350.7188 331.0045 352.4056
15.03608 350.71 330.9968 352.4021
15.04703 350.7194 330.9996 352.3977
15.05831 350.7074 330.9999 352.398
15.06952 350.7148 331.0018 352.4038
15.08063 350.7082 331.0037 352.3964
15.09222 350.7125 331.0003 352.4108
15.10327 350.7171 331.0017 352.4132
15.1146 350.7212 331.002 352.3974
15.12654 350.7115 331.0051 352.4037
15.13806 350.7123 331.002 352.4105
15.14932 350.7116 331.0021 352.4013
15.16051 350.7177 330.9898 352.4089
15.17163 350.7165 331.0056 352.4059
15.18248 350.7128 330.9935 352.4078
15.19311 350.7157 330.988 352.4084
15.20381 350.7095 331.0005 352.417
15.21441 350.7073 331.0033 352.4094
15.22556 350.7025 330.9953 352.4098
15.23648 350.7033 330.993 352.4112
15.24736 350.7158 331.0011 352.4031
15.25892 350.707 330.9857 352.4172
15.27326 350.7221 330.9971 352.4078
15.2836 350.6993 331.0028 352.4079
15.29431 350.7033 331 352.4152
15.30473 350.7031 330.9956 352.4103
15.31528 350.7136 330.999 352.4012
15.32562 350.7008 330.994 352.4005
15.33657 350.7106 331.0076 352.4063
15.34734 350.7072 330.9928 352.4022
15.35817 350.7174 330.9912 352.4003
15.36922 350.7004 330.9933 352.4091
15.3802 350.7093 330.997 352.4028
15.39118 350.7084 331.0052 352.3949
15.4021 350.7092 331.0071 352.3934
15.41425 350.6844 331.0049 352.3988
15.42534 350.7019 331.0013 352.3914
15.43624 350.7009 331.0001 352.3981
15.44698 350.7013 330.9839 352.4027
15.4581 350.7064 330.9947 352.3954
15.46884 350.7095 330.9929 352.3886
15.48 350.7043 331.0045 352.3973
15.4922 350.6969 331.0146 352.3918
15.50296 350.6935 331.0034 352.391
15.51414 350.6895 330.9957 352.397
15.52477 350.6901 330.9954 352.394
15.53589 350.704 331.0086 352.3878
15.54695 350.6877 330.9943 352.4009
15.55768 350.6925 330.9907 352.4053
15.56966 350.7034 330.9845 352.3988
15.58062 350.7098 330.9965 352.4014
15.59164 350.6956 330.9953 352.4061
15.60262 350.6997 330.9881 352.3986
15.61362 350.7025 330.9893 352.4015
15.62459 350.6932 330.995 352.4071
15.63578 350.71 331.0101 352.3928
15.64769 350.705 331.0075 352.3944
15.65844 350.6985 330.9904 352.4097
15.66937 350.7125 330.9913 352.4044
15.68043 350.7049 330.9969 352.407
15.69132 350.7012 331.0104 352.3976
15.70235 350.7019 331.0053 352.3874
15.71336 350.7076 331.0024 352.395
15.72525 350.7029 330.9993 352.4025
15.73632 350.6961 330.9961 352.4089
15.74722 350.6962 330.9953 352.4066
15.75818 350.7078 330.9926 352.4055
15.76916 350.7018 331.0037 352.4037
15.7803 350.713 330.9962 352.3953
15.79102 350.7106 331.0063 352.3976
15.80321 350.7067 331.006 352.4069
15.81403 350.707 330.9917 352.4101
15.82521 350.7032 330.9871 352.4149
15.83653 350.71 330.9993 352.4213
15.84756 350.7009 330.9983 352.403
15.85818 350.7007 330.9905 352.4064
15.87208 350.7029 330.9904 352.4088
15.88294 350.7113 330.9967 352.4185
15.8934 350.7064 331.0009 352.4133
15.90384 350.6975 330.9969 352.4061
15.91424 350.7119 331.0017 352.4125
15.92473 350.7174 330.9976 352.4023
15.93593 350.71 331.0085 352.4039
15.94696 350.7142 331.0028 352.4012
15.9581 350.7082 331.0034 352.4022
15.96965 350.7026 331.0015 352.4047
15.98059 350.6992 331.0093 352.3992
15.99154 350.7076 331.0004 352.4038
16.00279 350.7047 330.9917 352.4065
16.01743 350.6951 330.9886 352.4144
16.02789 350.6983 331.0054 352.3999
16.03865 350.7006 331.0014 352.398
16.0495 350.6978 330.9996 352.4093
16.06036 350.7079 330.9988 352.4066
16.07098 350.7193 331.0103 352.4041
16.08135 350.703 331.0168 352.4083
16.09156 350.6956 330.9952 352.3954
16.10269 350.6987 330.994 352.4006
16.114 350.7075 330.9887 352.4134
16.12479 350.6992 330.99 352.403
16.1358 350.7026 330.9858 352.4045
16.14702 350.7089 330.9957 352.411
16.15796 350.7083 330.993 352.4021
16.16989 350.7075 330.9963 352.4159
16.18053 350.7066 331.0107 352.4162
16.19156 350.6985 330.9934 352.4095
16.20255 350.7093 331.0058 352.4128
16.21353 350.709 330.9877 352.4158
16.2244 350.6934 330.9922 352.4054
16.23569 350.6936 331.0076 352.4082
16.24774 350.7057 331.0031 352.404
16.25864 350.6977 330.9969 352.4088
16.26969 350.6919 330.9943 352.406
16.28063 350.7036 330.9888 352.4095
16.29127 350.7039 330.9877 352.404
16.3022 350.7092 330.9825 352.4168
16.31313 350.7039 330.9954 352.4044
16.32532 350.6986 330.9904 352.4038
16.3362 350.7038 330.9861 352.4114
16.34735 350.7029 330.989 352.4201
16.35805 350.7048 330.9932 352.4077
16.36907 350.7003 330.9882 352.4217
16.38029 350.7002 330.9882 352.4277
16.39115 350.7068 330.9895 352.4108
16.40299 350.7154 330.9936 352.416
16.41407 350.7002 330.9922 352.4209
16.42503 350.6931 330.9931 352.4216
16.43612 350.6989 330.9956 352.416
16.44774 350.6918 330.9917 352.4283
16.45831 350.7146 330.9927 352.4198
16.46985 350.6949 330.9734 352.4226
16.48074 350.6947 330.9834 352.427
16.49187 350.7043 330.9823 352.4102
16.50359 350.702 330.9786 352.4152
16.51521 350.698 330.9951 352.4171
16.52582 350.7039 330.9814 352.4174
16.53647 350.706 330.9901 352.4177
16.54747 350.6945 330.9881 352.4314
16.55841 350.6949 330.9965 352.4276
16.56946 350.7055 330.9841 352.4308
16.58065 350.7141 330.9924 352.4259
16.59132 350.7141 330.9809 352.4268
16.60229 350.6925 330.9952 352.4261
16.61332 350.6949 330.994 352.4167
16.62522 350.702 330.9903 352.4261
16.63653 350.7146 330.9908 352.4218
16.64748 350.7122 330.9933 352.4201
16.65826 350.7031 330.9797 352.4251
16.66903 350.7186 330.9884 352.4226
16.68007 350.7077 330.9941 352.4059
16.69109 350.7098 330.9873 352.4234
16.703 350.7203 330.985 352.4269
16.71402 350.7113 330.9864 352.4193
16.72495 350.7089 330.9789 352.424
16.73637 350.7023 330.984 352.42
16.74696 350.7067 330.9955 352.4275
16.75782 350.71 331.0025 352.4243
16.76883 350.7119 330.9893 352.4098
16.78085 350.7042 330.9944 352.4192
16.79206 350.7015 330.993 352.4205
16.80271 350.7032 330.9856 352.4168
16.8138 350.7174 330.9873 352.4254
16.82466 350.7002 330.9936 352.4218
16.83596 350.705 330.9959 352.4105
16.84657 350.7126 330.9946 352.4104
16.85767 350.703 330.9828 352.4307
16.86956 350.7025 330.9731 352.4291
16.88072 350.7043 330.9937 352.4182
16.89189 350.7119 331.0003 352.4173
16.91703 350.7103 331.0018 352.4178
16.9283 350.7073 331.0016 352.4185
16.93949 350.716 330.9873 352.4251
16.95002 350.7054 331.006 352.4163
16.96071 350.7129 331.0023 352.4199
16.97185 350.7158 330.9908 352.4188
16.98293 350.7206 331.001 352.4233
16.99354 350.717 331.0043 352.4099
17.00426 350.7113 331.0059 352.4208
17.01534 350.71 331.0074 352.4237
17.02617 350.6998 330.9942 352.4297
17.03691 350.7016 331.0083 352.4287
17.04797 350.7155 331.0003 352.4249
17.05883 350.7145 331.0164 352.4308
17.07022 350.7151 331.0043 352.4213
17.08113 350.718 331.0059 352.4319
17.09176 350.7051 331.0011 352.4282
17.10298 350.7216 330.9928 352.4292
17.1141 350.7147 331.0121 352.411
17.12509 350.718 331.0055 352.4183
17.13604 350.7185 331.0042 352.4328
17.14702 350.7249 330.9928 352.4328
17.15811 350.7084 330.9953 352.4388
17.16873 350.7224 331.0011 352.4215
17.18081 350.7258 331.0009 352.4249
17.19189 350.7177 331.0086 352.4337
17.20372 350.7144 330.9998 352.4323
17.21478 350.7086 331.0007 352.4184
17.22586 350.7256 330.9961 352.4263
17.23645 350.7058 330.9986 352.4271
17.24798 350.7106 330.995 352.4187
17.25882 350.7129 330.999 352.4274
17.27029 350.7145 331.0056 352.4156
17.28524 350.7164 330.9968 352.4322
17.2966 350.7196 331.0022 352.4254
17.30762 350.7194 330.9937 352.4223
17.31845 350.7125 331.0006 352.4247
17.32912 350.7311 330.9965 352.4294
17.34088 350.7115 331.0003 352.4305
17.3519 350.7116 331.002 352.4193
17.36256 350.7057 330.9992 352.4239
17.373 350.7112 330.9981 352.4315
17.38356 350.7119 330.994 352.4228
17.3945 350.7115 330.9876 352.4188
17.40534 350.7048 331.005 352.426
17.416 350.7122 330.9899 352.4329
17.42686 350.7118 330.9932 352.4248
17.43764 350.703 330.9955 352.417
17.44814 350.7104 331.0018 352.4304
17.45853 350.7135 330.9908 352.4187
17.46905 350.713 330.9837 352.4423
17.47989 350.7077 330.9899 352.43
17.49196 350.7158 330.9938 352.4312
17.50292 350.713 330.9929 352.4312
17.51415 350.7054 330.9889 352.4246
17.5249 350.7111 330.9931 352.4258
17.53595 350.7083 330.9975 352.4235
17.54678 350.7104 330.9922 352.429
17.55777 350.7052 330.9872 352.4319
17.56873 350.712 330.9928 352.4267
17.58069 350.7115 330.9823 352.42
17.59163 350.7047 330.9913 352.4195
17.60266 350.7059 330.9936 352.4319
17.61359 350.7192 330.9943 352.4197
17.62487 350.7122 330.9857 352.4236
17.63554 350.7276 330.9956 352.4252
17.64697 350.7119 330.9824 352.4336
17.65858 350.7245 330.986 352.4284
17.66971 350.7152 330.9944 352.4288
17.68042 350.727 330.9906 352.4252
17.69146 350.7085 330.9927 352.4177
17.70235 350.7182 331.0005 352.4171
17.71345 350.7174 330.9882 352.4187
17.7248 350.7095 330.9956 352.4183
17.73651 350.7202 330.9937 352.4257
17.74761 350.7115 330.9926 352.4299
17.75829 350.7209 330.9878 352.4191
17.76916 350.7255 330.9961 352.4322
17.78022 350.7173 331.0072 352.421
17.79108 350.7225 330.9929 352.4219
17.80218 350.7118 330.9937 352.4396
17.81412 350.7193 331.0083 352.4321
17.82513 350.7101 331.0044 352.4208
17.83611 350.7072 331.0009 352.4259
17.84767 350.7208 331.0045 352.4308
17.85852 350.7116 330.9957 352.4005
17.86967 350.7232 331.0038 352.4123
17.88066 350.7175 330.9846 352.4223
17.89162 350.7154 330.9994 352.4174
17.90376 350.7221 330.9926 352.421
17.91438 350.7184 330.9947 352.428
17.92814 350.7148 330.9997 352.426
17.93877 350.7216 330.9937 352.42
17.94925 350.7247 330.9996 352.416
17.96038 350.7026 331.0046 352.4157
17.97123 350.7112 330.9919 352.4229
17.98255 350.7239 330.9845 352.4183
17.99323 350.7143 330.9932 352.4198
18.00377 350.7194 331.0015 352.4116
18.01504 350.7178 330.9922 352.4176
18.02656 350.7174 331.0052 352.4136
18.03787 350.7259 331.0047 352.4185
18.0486 350.7177 330.9996 352.4175
18.05967 350.7079 330.994 352.4175
18.07095 350.7091 331.0074 352.4289
18.08154 350.7153 331.0121 352.4322
18.09243 350.7233 331.0023 352.4223
18.10368 350.7153 330.9957 352.4109
18.11429 350.7147 330.9997 352.4125
18.12548 350.72 331.0054 352.4152
18.13676 350.7202 330.9993 352.4126
18.14761 350.7179 330.99 352.4216
18.15811 350.7173 330.9986 352.4208
18.16993 350.7229 330.9985 352.4215
18.18164 350.7153 330.9904 352.4276
18.19215 350.7238 331.0046 352.4149
18.20299 350.7188 330.9972 352.4201
18.2139 350.7208 330.9842 352.425
18.22484 350.721 330.9994 352.4286
18.2357 350.7193 330.9939 352.421
18.24668 350.7202 330.9912 352.4243
18.25761 350.7127 331.0039 352.422
18.26984 350.7192 331.0035 352.4292
18.28057 350.7162 330.99 352.4286
18.29177 350.713 331.0065 352.4208
18.30243 350.7158 331.0036 352.4251
18.31359 350.7072 330.9943 352.4058
18.32452 350.711 330.9951 352.4254
18.3355 350.7181 330.9997 352.4243
18.34744 350.7035 331.0056 352.4273
18.35842 350.7152 330.9951 352.4269
18.36933 350.7136 330.9998 352.4142
18.38042 350.7255 330.9999 352.4286
18.39127 350.7119 331.0027 352.4214
18.40237 350.71 330.9901 352.44
18.41318 350.7101 330.9985 352.4196
18.42519 350.715 330.9975 352.4291
18.4362 350.7102 331.0043 352.4249
18.44737 350.7099 331.0007 352.4298
18.45808 350.717 331.0101 352.4108
18.46906 350.7057 331.0091 352.4189
18.4802 350.7092 330.9984 352.4237
18.491 350.7158 331.0095 352.4107
18.50295 350.698 331.0048 352.4107
18.51396 350.7126 331.0066 352.4185
18.52489 350.7088 330.9992 352.4177
18.53592 350.7014 330.9921 352.4164
18.55056 350.7032 331.0148 352.4181
18.56091 350.6994 330.9899 352.425
18.5714 350.7065 330.9947 352.4164
18.58204 350.7012 331.0081 352.4105
18.59272 350.7174 330.9921 352.4252
18.60368 350.7124 330.9971 352.4294
18.61446 350.7152 331.0035 352.4263
18.62503 350.7059 331.0107 352.4127
18.63558 350.7012 331.0008 352.4313
18.64665 350.7074 331.0016 352.4266
18.65856 350.711 331.0176 352.414
18.66949 350.7002 330.9987 352.4165
18.68187 350.694 331.0054 352.4236
18.6925 350.6894 331.0019 352.4294
18.7031 350.7068 331.0089 352.4084
18.71364 350.7 331.0209 352.4072
18.72433 350.6991 330.9988 352.4259
18.73534 350.6982 331.0055 352.4206
18.7473 350.7107 331.0016 352.4181
18.75855 350.7026 331.0023 352.4214
18.76925 350.703 331.0022 352.4172
18.78027 350.7037 330.9957 352.4308
18.79123 350.714 331.0006 352.4193
18.80209 350.6982 331.0032 352.4186
18.81324 350.7051 331.0081 352.4093
18.82525 350.7115 330.9995 352.4226
18.83606 350.701 330.9936 352.4236
18.84707 350.6986 331.0063 352.4235
18.85835 350.7041 331.0039 352.4268
18.86897 350.6925 331.0078 352.4211
18.87996 350.7043 330.9954 352.4244
18.89094 350.701 331.0083 352.4148
18.90304 350.7037 331.0019 352.4181
18.91413 350.7068 331.0004 352.4176
18.92582 350.7118 331.0032 352.4282
18.93648 350.7095 331.0052 352.4289
18.94756 350.6997 330.9947 352.4168
18.9583 350.7133 331.0047 352.4193
18.96931 350.7003 331.0077 352.4164
18.98035 350.7053 331.0252 352.4142
18.99122 350.7018 331.0036 352.417
19.00224 350.6974 331.0096 352.4176
19.01314 350.7019 331.015 352.4345
19.02595 350.6957 331.0068 352.4274
19.03657 350.7101 331.0137 352.4331
19.04774 350.7061 331.0112 352.4227
19.05855 350.7025 331.0104 352.4242
19.06972 350.7046 331.0045 352.4239
19.08057 350.6985 331.013 352.4356
19.09152 350.7127 331.0084 352.4252
19.10242 350.7078 331.0091 352.4243
19.11349 350.7034 331.0132 352.4196
19.12436 350.7025 331.0132 352.4234
19.1354 350.7051 331.0083 352.4273
19.14805 350.7086 331.0066 352.4297
19.15861 350.7044 331.0164 352.4209
19.16925 350.7144 331.0059 352.4224
19.1805 350.7111 331.0116 352.4242
19.19151 350.7056 331.0233 352.4262
19.2029 350.7161 331.0251 352.4289
19.21381 350.7 331.0094 352.434
19.22547 350.701 331.0251 352.4142
19.2364 350.6975 331.023 352.4323
19.24712 350.7056 331.0211 352.4203
19.25806 350.7051 331.0128 352.4349
19.26901 350.7045 331.029 352.4278
19.28001 350.6959 331.01 352.4258
19.29096 350.6995 331.0126 352.428
19.30289 350.704 331.0109 352.4428
19.31396 350.7093 331.0156 352.4352
19.32544 350.7045 331.0214 352.4301
19.33662 350.6911 331.0182 352.4297
19.34747 350.6978 331.0222 352.4305
19.35827 350.7032 331.0177 352.4334
19.36928 350.7081 331.0187 352.4197
19.38049 350.6971 331.0181 352.4242
19.3912 350.6947 331.0179 352.4218
19.40209 350.6897 331.0178 352.4189
19.41321 350.7038 331.0166 352.4344
19.42575 350.6971 331.0051 352.4224
19.4367 350.6919 331.015 352.4225
19.44762 350.7047 331.0084 352.4205
19.45861 350.7005 331.0052 352.4265
19.46967 350.6982 331.0087 352.4242
19.48063 350.6978 331.0143 352.4102
19.49172 350.6879 331.0208 352.4013
19.50253 350.7039 331.0106 352.4227
19.51354 350.7012 331.0064 352.4247
19.52463 350.6984 331.0088 352.4249
19.53578 350.6884 331.0137 352.4107
19.54682 350.7004 331.024 352.4152
19.55868 350.7131 331.0129 352.4204
19.56949 350.7093 331.0165 352.4216
19.58053 350.7055 331.0147 352.4117
19.59148 350.6869 331.0174 352.4258
19.60247 350.7078 331.0044 352.4229
19.61341 350.7014 331.0159 352.4182
19.62443 350.6994 331.0068 352.4178
19.6353 350.7072 331.0008 352.4277
19.6475 350.7026 331.0183 352.4095
19.65831 350.6958 331.0116 352.4208
19.66968 350.693 331.0194 352.4193
19.68054 350.7114 331.0161 352.4244
19.69173 350.6929 331.009 352.4183
19.70287 350.6972 330.9974 352.4149
19.71388 350.6955 331.0053 352.4149
19.72543 350.7058 331.0103 352.4225
19.7362 350.7099 331.0077 352.4219
19.74734 350.6971 330.9997 352.4223
19.75812 350.7145 331.0178 352.434
19.76908 350.7008 331.0086 352.4313
19.78021 350.7098 331.011 352.4317
19.7911 350.6983 331.0169 352.4396
19.8029 350.7132 331.012 352.424
19.81413 350.7076 331.0196 352.4342
19.82536 350.7092 331.0124 352.426
19.83642 350.7149 331.0194 352.4369
19.84735 350.7109 331.0228 352.43
19.85771 350.714 331.0302 352.4308
19.86872 350.7137 331.0138 352.4307
19.88073 350.7103 331.0253 352.4305
19.89169 350.712 331.0128 352.4363
19.90272 350.7079 331.0261 352.4342
19.91362 350.7091 331.0268 352.4322
19.92467 350.7159 331.0229 352.4335
19.9355 350.7182 331.0265 352.4246
19.94652 350.7083 331.0219 352.4257
19.96113 350.7123 331.0218 352.4253
19.97176 350.7122 331.0178 352.438
19.98228 350.7203 331.0292 352.4201
19.99261 350.7055 331.0226 352.4371
20.00334 350.7211 331.022 352.433
20.01403 350.7203 331.0216 352.4342
20.02449 350.7205 331.028 352.4259
20.03632 350.7111 331.033 352.4249
20.04728 350.7105 331.0238 352.4284
20.05817 350.7156 331.0383 352.418
20.07003 350.7114 331.0244 352.4396
20.08044 350.7158 331.0279 352.4351
20.09127 350.7132 331.0246 352.4285
20.10228 350.7142 331.0255 352.4259
20.11446 350.6989 331.0157 352.433
20.12541 350.7078 331.0187 352.4302
20.13648 350.7206 331.0266 352.4279
20.14756 350.7093 331.0168 352.4248
20.1593 350.7028 331.0335 352.4198
20.16955 350.712 331.0233 352.4315
20.17998 350.7073 331.0222 352.4306
20.19232 350.7087 331.0304 352.4235
20.20392 350.7111 331.0312 352.4236
20.21456 350.7243 331.022 352.437
20.22531 350.7059 331.0345 352.4383
20.23583 350.7057 331.0227 352.4282
20.2467 350.7158 331.0244 352.433
20.25775 350.7017 331.0257 352.4301
20.26867 350.7154 331.0315 352.4304
20.28065 350.7081 331.0244 352.4228
20.29168 350.7099 331.0324 352.4282
20.30258 350.7137 331.0323 352.4196
20.31402 350.7112 331.0236 352.4344
20.32476 350.7079 331.0185 352.4261
20.33546 350.7175 331.0265 352.4333
20.34667 350.7098 331.0335 352.4356
20.35842 350.7119 331.0229 352.4292
20.36934 350.7202 331.0206 352.4317
20.38076 350.7194 331.0168 352.4194
20.39128 350.7135 331.0267 352.4271
20.4023 350.7127 331.0262 352.4258
20.41326 350.7266 331.0127 352.4291
20.42441 350.7177 331.0209 352.4271
20.43624 350.7143 331.0208 352.4358
20.44716 350.7173 331.0253 352.4258
20.45821 350.7118 331.023 352.4269
20.46931 350.71 331.0249 352.4176
20.48038 350.7089 331.0294 352.4263
20.49112 350.7039 331.0213 352.431
20.50204 350.7226 331.0119 352.4327
20.51406 350.7132 331.0143 352.426
20.52501 350.7185 331.011 352.4397
20.53592 350.7123 331.021 352.4365
20.54703 350.7124 331.0228 352.4339
20.56078 350.7212 331.0174 352.4247
20.57167 350.7013 331.0165 352.4323
20.58228 350.7194 331.0119 352.4317
20.59263 350.6991 331.0291 352.4264
20.60334 350.7107 331.0179 352.4271
20.61412 350.7116 331.0031 352.4279
20.62534 350.7139 331.011 352.4347
20.636 350.716 331.0164 352.4235
20.64665 350.7112 331.0081 352.4243
20.6577 350.7157 331.0033 352.4244
20.66996 350.7116 331.0143 352.4351
20.68066 350.6999 331.0016 352.4264
20.69152 350.709 331.0065 352.4194
20.70252 350.7023 330.9986 352.4075
20.71355 350.7054 331.0098 352.4272
20.72437 350.7152 331.0005 352.4278
20.73546 350.7167 331.01 352.4317
20.74756 350.7108 331.007 352.4264
20.75838 350.7115 331.0112 352.4307
20.76932 350.71 331.0051 352.4362
20.78057 350.7129 331.0065 352.4254
20.79121 350.7066 331.0038 352.438
20.80235 350.7136 331.0027 352.4287
20.8132 350.7093 331.006 352.4338
20.82537 350.7098 331.0032 352.4311
20.83608 350.7128 331.0085 352.4276
20.84715 350.7183 331.0056 352.427
20.85805 350.7014 331.0137 352.4339
20.86905 350.7168 331.0008 352.4337
20.88008 350.7148 331.003 352.4323
20.89112 350.7126 330.9992 352.4411
20.90291 350.7169 331.0178 352.4359
20.9141 350.7131 331.0002 352.435
20.92487 350.7039 330.9996 352.4339
20.93678 350.7067 331.0025 352.4394
20.94764 350.7163 331.0018 352.4376
20.95832 350.7176 330.9946 352.4391
20.96938 350.706 330.9951 352.4347
20.98035 350.7125 330.9959 352.4377
20.99127 350.7117 331.0003 352.4312
21.00224 350.7152 331.0023 352.4593
21.01318 350.7144 331.0007 352.4468
21.02526 350.7118 331.0093 352.4522
21.03674 350.7166 330.9933 352.4422
21.04768 350.7103 331.0025 352.4367
21.05869 350.7134 331.0056 352.4434
21.06964 350.7196 331.0066 352.4431
21.08063 350.7232 330.9926 352.4394
21.09177 350.729 330.9969 352.4451
21.10257 350.7215 331.0135 352.4439
21.1137 350.7128 331.0086 352.4369
21.12457 350.7115 330.9957 352.45
21.1354 350.71 330.9968 352.4512
21.14746 350.7102 331.0164 352.4443
21.15841 350.7112 331.0075 352.455
21.16966 350.7135 330.9941 352.4384
21.18079 350.7222 331.0023 352.4459
21.19156 350.715 331.0165 352.4413
21.2029 350.7206 331.0032 352.4409
21.21438 350.7184 331.0103 352.4313
21.22591 350.7153 331.0098 352.4398
21.23647 350.7247 331.0107 352.4364
21.24739 350.7198 331.0104 352.4366
21.25813 350.709 331.0034 352.4523
21.26908 350.7162 331.0112 352.4452
21.28012 350.7142 331.0072 352.4365
21.29099 350.7015 331.0049 352.4488
21.30199 350.7147 331.0018 352.4359
21.31405 350.7206 330.9952 352.4392
21.32493 350.7178 331.0143 352.438
21.33585 350.7115 330.9918 352.4519
21.34702 350.7128 331.0056 352.4316
21.35795 350.7059 331.0067 352.4429
21.36877 350.7085 330.9982 352.4346
21.37981 350.7109 331.0117 352.4432
21.39181 350.7058 330.9962 352.4475
21.40336 350.7141 331.0016 352.4388
21.41398 350.7091 330.9982 352.428
21.42469 350.7219 331.0073 352.4355
21.43568 350.7146 331.0109 352.437
21.44678 350.714 331.0017 352.4312
21.45755 350.6981 331.0083 352.4297
21.46963 350.7203 331.0016 352.438
21.48054 350.7011 331.0005 352.4359
21.49155 350.7199 331.0069 352.4315
21.50244 350.7121 331.0188 352.4409
21.51359 350.7068 331.0224 352.4249
21.52434 350.7024 331.0146 352.4377
21.53528 350.6969 331.0133 352.445
21.54737 350.7143 331.0058 352.429
21.55855 350.7111 331.0106 352.4442
21.56922 350.7107 331.0153 352.4255
21.58031 350.6989 331.0094 352.4351
21.59118 350.7147 330.9976 352.4329
21.60221 350.7068 331.0116 352.4247
21.61307 350.7122 331.0136 352.4246
21.62514 350.7124 330.9924 352.4325
21.63604 350.7024 331.0082 352.4288
21.64707 350.6937 331.0059 352.4297
21.65802 350.7003 331.0032 352.4255
21.66898 350.709 331.0077 352.4215
21.68008 350.7129 331.0037 352.4193
21.69088 350.7005 331.0157 352.4207
21.70291 350.7035 331.0013 352.4291
21.7529 350.7136 331.0152 352.4347
21.79158 350.7216 331.0022 352.4312
21.80756 350.7075 331.0231 352.4509
21.81924 350.7087 331.0127 352.4258
21.83031 350.728 331.0195 352.4389
21.84126 350.7128 331.0213 352.4267
21.85312 350.7133 331.0175 352.4329
21.86436 350.7203 331.0218 352.4343
21.87575 350.7089 331.0239 352.4387
21.8873 350.718 331.0169 352.4345
21.89848 350.7159 331.0192 352.4285
21.91019 350.7004 331.0092 352.4335
21.92292 350.7176 331.0327 352.4301
21.93465 350.7173 331.0096 352.4395
21.94508 350.7166 331.0114 352.4335
21.95601 350.7118 330.9987 352.4331
21.96696 350.7136 331.0093 352.4304
21.97791 350.7133 331.0139 352.4369
21.98881 350.7148 331.0015 352.4445
22.0003 350.7152 331.0043 352.4393
22.01115 350.7077 331.0104 352.4352
22.02365 350.7155 331.0224 352.433
22.03503 350.7135 331.0136 352.4376
22.04597 350.7156 330.9891 352.4386
22.05718 350.7104 331.0065 352.4453
22.06923 350.7128 331.009 352.4375
22.08042 350.7065 331.0171 352.4413
22.09171 350.7264 331.0054 352.4546
22.10258 350.7089 330.9936 352.4509
22.11341 350.7208 331.0063 352.4535
22.12432 350.7202 331.0065 352.4391
22.13513 350.7188 331.004 352.4447
22.14588 350.7259 331.0016 352.4388
22.15699 350.7243 331.0006 352.4449
22.16801 350.7116 330.9987 352.4524
22.17879 350.7242 330.9961 352.4504
22.18964 350.7244 331.0017 352.4399
22.20136 350.705 330.9954 352.4379
22.21248 350.7206 331 352.4503
22.22388 350.7129 331.0033 352.4514
22.23495 350.7113 330.9973 352.4555
22.24576 350.7164 330.9948 352.4473
22.25698 350.7102 331.003 352.4464
22.26825 350.7073 330.9886 352.4498
22.2795 350.716 331.0083 352.4365
22.29057 350.7086 330.9976 352.4362
22.30166 350.7079 331.0139 352.4339
22.31236 350.7084 330.9984 352.443
22.32313 350.7216 330.9855 352.4514
22.33842 350.7092 331.0013 352.4552
22.34942 350.7141 331.0057 352.4391
22.36039 350.699 330.9993 352.4465
22.37109 350.7221 330.998 352.4387
22.3826 350.7141 330.9951 352.4463
22.39406 350.714 331.0049 352.4411
22.40496 350.7104 330.9922 352.4505
22.41588 350.7114 330.9995 352.4375
22.42651 350.7225 331.0054 352.4332
22.43793 350.7166 330.998 352.4473
22.44913 350.7146 330.9974 352.4446
22.45991 350.719 330.9941 352.4456
22.47081 350.7213 330.9896 352.4504
22.48174 350.7186 330.9853 352.4502
22.4928 350.7281 331.0097 352.4455
22.50373 350.7293 331.0037 352.4422
22.51479 350.7239 330.9918 352.4455
22.52569 350.7182 330.999 352.4329
22.53702 350.7236 331.0067 352.4495
22.54768 350.7223 331.0022 352.4439
22.55854 350.7248 331.0049 352.4371
22.56963 350.7211 330.9936 352.448
22.58043 350.7318 331.0077 352.441
22.59136 350.7202 330.9876 352.4382
22.6026 350.7289 330.9992 352.4374
22.61387 350.7198 330.9915 352.4337
22.62476 350.7297 331.0093 352.4365
22.63566 350.7292 330.9868 352.4321
22.64638 350.7325 331.0071 352.4436
22.65778 350.7191 330.995 352.446
22.66937 350.7271 331.0017 352.4437
22.68024 350.7233 331.0081 352.4408
22.69153 350.7314 330.9917 352.4427
22.70304 350.7195 331.0015 352.4363
22.71375 350.7204 330.9877 352.4475
22.72466 350.7224 331.0124 352.4428
22.73559 350.7147 330.9952 352.4341
22.74639 350.724 331.0045 352.4328
22.75784 350.7298 331.0049 352.4402
22.76905 350.7293 330.9975 352.4395
22.78012 350.7206 330.9991 352.4315
22.7911 350.7373 330.9964 352.4292
22.80361 350.7169 331.0063 352.4243
22.81439 350.7164 331.0182 352.4278
22.82537 350.7245 331.0021 352.4279
22.83662 350.7157 331.0054 352.4268
22.84786 350.7244 330.9975 352.4316
22.85864 350.7156 331.0023 352.4352
22.86947 350.7255 331.0055 352.4312
22.88022 350.7216 331.0102 352.4305
22.89113 350.7213 331.0161 352.4263
22.90279 350.7182 331.0102 352.439
22.91352 350.7289 331.0169 352.4288
22.92433 350.7208 331.0102 352.4417
22.93518 350.7335 331.0063 352.4417
22.94818 350.7241 331.001 352.4457
22.9594 350.722 331.0209 352.4334
22.97063 350.7175 331.0049 352.4375
22.98254 350.7266 330.9981 352.4401
22.99431 350.7381 331.0088 352.4312
23.00591 350.7286 331.0063 352.4451
23.01821 350.7267 331.0085 352.4483
23.02872 350.7269 331.0037 352.4413
23.04283 350.7252 331.0042 352.434
23.05391 350.7257 331.0039 352.4332
23.06432 350.7287 331.0006 352.4483
23.0752 350.7268 330.9947 352.4407
23.08612 350.7284 331.0006 352.441
23.09741 350.7312 331.0168 352.4472
23.10808 350.7309 331.0015 352.4458
23.11878 350.7278 331.0024 352.4469
23.12921 350.731 331.011 352.4507
23.1401 350.726 330.9964 352.4499
23.1507 350.7227 331.0097 352.4395
23.16139 350.7292 331.0034 352.4578
23.17245 350.7293 331.0056 352.4403
23.18311 350.728 331.0043 352.4433
23.19424 350.7153 331.0089 352.4243
23.20531 350.7226 331.0043 352.433
23.21613 350.7284 331.0092 352.4434
23.22693 350.723 331.0017 352.4276
23.23791 350.7294 331.0028 352.4325
23.24846 350.7394 330.9989 352.438
23.25908 350.7228 331.0088 352.4358
23.26991 350.719 331.0013 352.4277
23.28044 350.7099 331.0136 352.423
23.29112 350.7207 330.9982 352.4275
23.30206 350.7296 331.0001 352.4374
23.31301 350.7233 331.0017 352.4193
23.32344 350.7291 331.0058 352.4309
23.33457 350.7292 330.9951 352.4236
23.34523 350.7296 330.9897 352.442
23.3559 350.7203 331.0041 352.4211
23.36744 350.7257 331.0051 352.421
23.37826 350.7323 330.9886 352.4259
23.38906 350.7294 330.9966 352.4244
23.40091 350.7287 330.9938 352.4228
23.41181 350.7207 331.0127 352.4279
23.42281 350.7238 330.9948 352.4287
23.43394 350.7262 330.9954 352.4328
23.44498 350.7321 330.995 352.4341
23.45598 350.72 330.9885 352.4211
23.46904 350.7257 330.9967 352.4287
23.48368 350.7332 330.9889 352.4168
23.4946 350.7186 330.989 352.4193
23.50618 350.7267 330.9985 352.4315
23.51738 350.7091 330.9984 352.425
23.52812 350.7202 330.9965 352.4275
23.53911 350.724 330.9968 352.4245
23.55149 350.7184 331.0031 352.418
23.56209 350.7277 331.0099 352.4155
23.57311 350.7251 330.9944 352.4301
23.58469 350.7259 331.004 352.4331
23.59562 350.7237 330.9828 352.4375
23.60615 350.7361 330.994 352.4349
23.61675 350.7283 330.9879 352.4255
23.62763 350.7352 331.0051 352.4258
23.64258 350.7176 330.9854 352.419
23.65322 350.7251 331.0001 352.4294
23.66347 350.7228 330.9974 352.4382
23.67406 350.7206 331.0001 352.4269
23.68486 350.7151 331.0054 352.4178
23.69556 350.7259 331.0007 352.4247
23.70648 350.7202 330.9901 352.4275
23.71732 350.7296 330.9945 352.437
23.72838 350.7235 330.9909 352.4289
23.73909 350.7363 331.0099 352.4368
23.75006 350.7191 331.0005 352.4355
23.76059 350.7168 331.0001 352.4259
23.77167 350.7222 331.0044 352.4328
23.78245 350.7388 331.0129 352.4196
23.79296 350.7116 331.0091 352.4241
23.80368 350.7223 331.0099 352.4258
23.81411 350.7275 331.0051 352.4323
23.82462 350.7325 331.0045 352.4304
23.83522 350.726 330.9986 352.431
23.84563 350.7251 331.0043 352.427
23.85608 350.7197 331.0133 352.434
23.86694 350.7223 331.0117 352.4346
23.8774 350.7323 331.0077 352.4224
23.88938 350.7281 330.999 352.4294
23.90074 350.7147 331.0109 352.4249
23.91125 350.7165 331.0151 352.428
23.92198 350.7165 331.0128 352.4265
23.93341 350.7251 331.0137 352.427
23.94505 350.7119 331.0103 352.4248
23.95592 350.7163 331.0188 352.4177
23.96721 350.719 331.02 352.4189
23.97798 350.7263 331.0178 352.4171
23.98888 350.7194 331.0082 352.425
24.00035 350.7273 331.0189 352.4266
24.01126 350.7278 331.0177 352.4218
24.02243 350.7103 331.0049 352.4102
24.03411 350.7221 331.0217 352.4108
24.04511 350.7206 331.0129 352.4226
24.05595 350.7127 331.0115 352.4195
24.06758 350.735 331.0208 352.4111
24.07822 350.7146 331.0179 352.4224
24.08947 350.7162 331.0152 352.4146
24.10045 350.7188 331.0147 352.4167
24.11128 350.7167 331.0082 352.4139
24.12185 350.7241 331.012 352.4176
24.13411 350.7247 331.011 352.4155
24.14494 350.7226 331.0064 352.4285
24.15585 350.7085 331.0116 352.4075
24.16698 350.7114 331.0106 352.4173
24.17774 350.7188 331.0093 352.4109
24.18869 350.7148 331.0179 352.4195
24.19995 350.7259 331.0109 352.4186
24.21173 350.7154 331.0103 352.4185
24.2228 350.7033 331.0168 352.4179
24.24075 350.7084 331.0185 352.4116
24.25152 350.7175 331.0195 352.4123
24.26195 350.7157 331.0145 352.4149
24.27295 350.7254 331.0041 352.419
24.28378 350.7162 331.0168 352.4224
24.29436 350.7093 331.0107 352.4109
24.30492 350.7013 331.0275 352.4168
24.31572 350.7021 331.0112 352.4212
24.32682 350.7133 331.017 352.4212
24.33749 350.7113 331.0081 352.4125
24.348 350.713 331.0117 352.4154
24.35863 350.7164 331.0159 352.4093
24.36931 350.7037 330.9977 352.4151
24.37982 350.7125 330.9972 352.4162
24.39037 350.713 331.0052 352.4163
24.40131 350.7095 330.9958 352.4218
24.41184 350.7106 331.0042 352.422
24.42264 350.7208 331.0115 352.4138
24.43384 350.71 331.0162 352.4177
24.44455 350.7131 331.0168 352.4167
24.45555 350.72 331.0142 352.4203
24.46709 350.7104 331.0093 352.4259
24.47771 350.7173 331.0137 352.4216
24.4895 350.7123 331.0028 352.4213
24.50076 350.7127 331.004 352.4262
24.51175 350.7088 331.0057 352.4236
24.52237 350.7018 331.0108 352.4123
24.53362 350.7107 331.0109 352.4161
24.54428 350.7109 331.0097 352.4195
24.55548 350.7155 330.9965 352.4074
24.56754 350.7075 330.9983 352.4218
24.57843 350.7055 331.0008 352.4243
24.58931 350.7076 330.9906 352.4253
24.60041 350.709 331.0031 352.4177
24.61115 350.7111 331.0017 352.4125
24.62207 350.721 331.0064 352.4191
24.63338 350.7073 331.0171 352.4038
24.64402 350.7168 331.0074 352.4251
24.65599 350.7164 331.0054 352.4241
24.66723 350.7133 331.0039 352.4196
24.6781 350.7104 331.0051 352.4265
24.68895 350.7084 331.0126 352.4226
24.70012 350.7218 331.0007 352.43
24.71114 350.7254 331.0122 352.4062
24.72176 350.7198 331.0028 352.4247
24.73403 350.7271 331.0044 352.428
24.74504 350.7095 330.9961 352.416
24.75575 350.7129 331.0082 352.4191
24.76709 350.7097 331.0037 352.4221
24.77781 350.7123 331.0017 352.4099
24.78858 350.7126 331.0172 352.409
24.79983 350.7136 330.9968 352.419
24.81161 350.7042 330.994 352.4237
24.82263 350.7136 331.0109 352.4091
24.83377 350.7078 331.0025 352.422
24.8445 350.7025 330.9995 352.43
24.85545 350.7081 331.0015 352.4195
24.86687 350.7085 331.0072 352.4112
24.87759 350.7175 331.0034 352.4212
24.88937 350.7181 331.0092 352.4215
24.90448 350.709 331.0062 352.4209
24.9152 350.7046 331.0044 352.4178
24.9261 350.7015 331.0152 352.4191
24.93701 350.7004 331.0112 352.4195
24.94758 350.717 331.0068 352.4256
24.9582 350.7109 331.015 352.4115
24.96883 350.708 331.0125 352.4222
24.98054 350.7183 331.0027 352.421
24.99135 350.7069 331.0061 352.4345
25.00283 350.7063 331.0123 352.4282
25.01434 350.708 331.0036 352.4209
25.02515 350.7116 331.0052 352.4262
25.03628 350.7199 331.0061 352.42
25.04665 350.7214 331.0006 352.4261
25.05731 350.7119 331.0039 352.4093
25.068 350.72 331.0081 352.4117
25.07844 350.7161 330.9964 352.4214
25.08935 350.7126 331.0101 352.4211
25.10025 350.7216 331.0106 352.4211
25.11107 350.7129 331.0065 352.4268
25.12284 350.7062 331.0069 352.4364
25.13406 350.7177 331.0124 352.4377
25.145 350.7162 331.0077 352.435
25.15563 350.7268 330.9991 352.4303
25.16693 350.7207 331.0062 352.4374
25.17828 350.708 331.0139 352.4334
25.18981 350.711 331.011 352.4159
25.20122 350.7223 331.0048 352.4243
25.212 350.7091 330.9972 352.4324
25.223 350.707 331.0038 352.4333
25.23391 350.7126 331.0013 352.4255
25.24503 350.7132 331.0082 352.4318
25.25638 350.709 331.0084 352.4241
25.27114 350.7229 331.0007 352.4419
25.28163 350.6973 331.0069 352.4339
25.29311 350.7121 330.999 352.4377
25.30428 350.7033 331.0075 352.4379
25.31668 350.7083 330.9992 352.426
25.32744 350.7021 331.0119 352.4307
25.33854 350.7151 330.9984 352.4344
25.349 350.7067 331.0099 352.418
25.35967 350.7159 330.9973 352.4256
25.37037 350.7145 331.0051 352.4196
25.38139 350.716 330.9987 352.4225
25.39208 350.7122 331.009 352.4285
25.40336 350.7074 330.998 352.4308
25.41374 350.7146 331.0029 352.4201
25.42468 350.7153 331.0038 352.4303
25.43536 350.7153 331.0038 352.4314
25.44644 350.7227 331.0139 352.4252
25.457 350.7113 331.0055 352.4279
25.46785 350.7171 331.0016 352.4131
25.47862 350.7035 331.0036 352.4188
25.49131 350.7145 331.0043 352.4133
25.50269 350.7146 331.0086 352.4283
25.51484 350.7206 331.0086 352.4266
25.52562 350.6982 330.9967 352.4289
25.53671 350.7081 331.0028 352.4159
25.55108 350.7109 331.003 352.4286
25.56191 350.7139 330.9936 352.4245
25.57262 350.7192 331.0084 352.4368
25.58372 350.7128 331.0084 352.4291
25.59441 350.7179 331.0104 352.4298
25.60543 350.7196 331.0083 352.4227
25.61691 350.7206 331.0086 352.4199
25.62929 350.7193 330.9989 352.4286
25.64024 350.7267 331.0143 352.4189
25.65145 350.7232 331.0015 352.4317
25.66286 350.7305 331.018 352.4219
25.67348 350.726 331.0071 352.4255
25.68431 350.7137 331.0063 352.429
25.6956 350.7243 331.003 352.4265
25.70656 350.7165 331.0035 352.4237
25.71754 350.7206 330.99 352.4265
25.72813 350.719 331.0003 352.4317
25.73895 350.7072 330.9971 352.4298
25.74944 350.717 330.9993 352.4286
25.76043 350.7154 331.002 352.4258
25.77153 350.7184 330.9943 352.4335
25.78185 350.7287 330.9937 352.4287
25.79252 350.7143 331.0081 352.4198
25.80346 350.7037 331.0017 352.4289
25.8138 350.7139 330.9989 352.4294
25.8245 350.7122 330.9912 352.4135
25.83496 350.7081 330.9994 352.4298
25.84563 350.7085 331.0123 352.4313
25.85599 350.7032 330.9978 352.4311
25.86682 350.706 330.9938 352.4277
25.87747 350.7061 331.0009 352.432
25.88964 350.7136 331.0037 352.418
25.90087 350.709 330.9951 352.4347
25.91155 350.7036 331.0011 352.4299
25.92299 350.7011 331.0075 352.438
25.93443 350.7076 331.0068 352.4414
25.94501 350.7133 331.0048 352.4352
25.95604 350.7062 330.9948 352.4351
25.96701 350.7086 330.9921 352.4319
25.97781 350.7056 331.0034 352.4302
25.98878 350.7083 331.0058 352.4256
25.99971 350.7061 330.9971 352.4421
26.01167 350.7124 330.9845 352.4283
26.02278 350.7133 330.9964 352.4403
26.03374 350.7076 331.0069 352.4386
26.04455 350.7068 330.9973 352.4317
26.05562 350.7119 330.9974 352.4328
26.06658 350.7063 330.9968 352.4362
26.07751 350.7054 330.9936 352.4353
26.08946 350.7067 330.9924 352.4261
26.10065 350.7174 331.0036 352.4299
26.11164 350.7094 330.9987 352.4176
26.12293 350.7069 330.9955 352.4247
26.1361 350.7206 330.9969 352.4309
26.14658 350.7128 330.9977 352.434
26.15739 350.7111 330.996 352.4289
26.16809 350.7085 331.0068 352.4304
26.17853 350.7111 330.9948 352.4337
26.18913 350.7178 330.9887 352.4392
26.20017 350.7144 330.9965 352.4329
26.2121 350.7166 330.9821 352.4275
26.22288 350.7076 330.9944 352.4342
26.2338 350.7086 330.9945 352.4313
26.24849 350.7094 330.991 352.4307
26.25905 350.7219 330.9865 352.4302
26.27195 350.716 330.991 352.4234
26.28281 350.7096 330.9926 352.4303
26.29354 350.7074 331.0031 352.42
26.3043 350.7172 330.9984 352.4385
26.31469 350.7129 330.9897 352.4252
26.32543 350.7177 330.9933 352.4298
26.33587 350.7135 330.9963 352.4338
26.34643 350.7059 330.9884 352.4345
26.35732 350.7136 330.9899 352.4322
26.3679 350.7092 330.9954 352.4265
26.37847 350.7202 330.997 352.4386
26.38913 350.7234 330.9983 352.4291
26.40098 350.7088 330.9902 352.4268
26.41189 350.7282 330.9967 352.4264
26.42252 350.7216 331.0031 352.4265
26.43311 350.7098 330.9883 352.425
26.44407 350.725 330.9929 352.422
26.45636 350.721 330.998 352.4268
26.46701 350.7237 330.9962 352.4264
26.4779 350.7253 330.9975 352.4213
26.48889 350.7254 330.9876 352.4193
26.50001 350.7199 331.0032 352.4173
26.51083 350.7257 330.9912 352.4284
26.52178 350.7165 330.9952 352.426
26.53391 350.7232 330.9973 352.4248
26.5452 350.7205 331.0031 352.4125
26.55573 350.7205 330.9918 352.4201
26.56676 350.7233 330.9871 352.4208
26.57798 350.7288 330.9972 352.4207
26.58883 350.7119 330.9988 352.4262
26.59967 350.7159 330.9969 352.4165
26.61155 350.7235 330.9928 352.4273
26.62261 350.7226 330.9907 352.4227
26.63357 350.722 330.9934 352.4168
26.64448 350.7169 330.9967 352.4219
26.65537 350.7012 331.0013 352.415
26.66645 350.7101 330.9914 352.4193
26.67744 350.7161 330.9995 352.4178
26.6894 350.7255 331.0047 352.4066
26.70074 350.7169 330.9935 352.4183
26.7114 350.7078 330.9813 352.4226
26.72548 350.7118 330.9871 352.4249
26.73669 350.71 330.9913 352.426
26.74716 350.7211 330.9892 352.4258
26.75805 350.7111 330.9897 352.4204
26.76903 350.7096 330.9817 352.4084
26.77967 350.7141 330.9792 352.4167
26.79025 350.7102 330.9941 352.4265
26.80107 350.7199 330.9892 352.423
26.81203 350.7149 330.9852 352.4102
26.82257 350.7037 330.9848 352.417
26.83341 350.7096 330.9848 352.4207
26.84513 350.7122 330.987 352.4355
26.85622 350.7098 330.9932 352.4116
26.86703 350.7083 331.0011 352.4099
26.8818 350.7183 330.9893 352.4082
26.89255 350.7137 330.9791 352.4274
26.90335 350.7206 330.9887 352.4226
26.91379 350.7203 330.9883 352.4089
26.9243 350.7185 330.9923 352.4098
26.93493 350.725 330.9859 352.4088
26.94555 350.7114 330.9922 352.4151
26.95669 350.7125 330.9918 352.4188
26.96768 350.7064 330.9944 352.4127
26.97879 350.7208 330.9903 352.4168
26.9894 350.7018 330.9946 352.4167
27.00065 350.7012 330.9761 352.4084
27.01149 350.7083 330.9934 352.4033
27.02252 350.7022 330.9895 352.4197
27.03369 350.7152 330.9992 352.4131
27.045 350.7074 330.9967 352.4066
27.05563 350.7082 330.9954 352.4135
27.0665 350.7091 330.9961 352.4087
27.07839 350.7076 330.9884 352.4044
27.08925 350.706 330.9904 352.4046
27.10031 350.7186 330.9942 352.4097
27.11132 350.7119 330.9857 352.4091
27.12258 350.7094 331.0002 352.4017
27.13394 350.6982 331.0023 352.4
27.14548 350.7167 330.9925 352.3994
27.15605 350.7134 330.992 352.4058
27.16738 350.6945 330.9944 352.403
27.17867 350.7047 330.9941 352.411
27.18938 350.7089 330.9844 352.4083
27.20063 350.6949 330.9939 352.4082
27.21132 350.7066 330.9876 352.4135
27.22239 350.7112 330.9929 352.4189
27.23315 350.7057 330.9927 352.4094
27.24403 350.7059 331.0031 352.4034
27.25603 350.696 330.9811 352.4054
27.26709 350.6897 330.9755 352.4102
27.2779 350.6935 330.9886 352.4062
27.2889 350.6924 330.9818 352.4119
27.30005 350.6969 330.9868 352.4045
27.31124 350.6961 330.9948 352.4102
27.322 350.7027 330.9822 352.4091
27.33384 350.7112 331.0043 352.4148
27.34479 350.6994 330.9828 352.417
27.35639 350.701 330.9872 352.4069
27.36734 350.6969 330.9828 352.4173
27.37773 350.6971 330.9942 352.401
27.38861 350.7006 330.9902 352.4066
27.40003 350.6965 330.9977 352.4024
27.41163 350.6946 330.9947 352.4093
27.42254 350.7018 330.9939 352.411
27.43327 350.6946 330.9972 352.4011
27.44429 350.7079 331.0027 352.4094
27.4552 350.7036 330.9943 352.4042
27.4673 350.6985 330.9979 352.4068
27.47815 350.701 330.997 352.4087
27.48913 350.7029 330.9916 352.4215
27.50024 350.6976 330.9863 352.3988
27.51154 350.7203 330.9936 352.4001
27.5224 350.7085 331.0047 352.3972
27.5337 350.6965 330.9982 352.4148
27.54466 350.6992 330.9851 352.4022
27.5555 350.7043 330.9901 352.4079
27.56651 350.7077 330.978 352.3992
27.58139 350.6978 330.9881 352.4023
27.59286 350.6999 330.9916 352.4077
27.60358 350.7146 330.9838 352.4182
27.61392 350.7054 331.0021 352.4097
27.62448 350.7135 330.9951 352.4184
27.63521 350.7148 331.0001 352.4116
27.64616 350.704 330.9889 352.4112
27.65679 350.72 330.9933 352.4064
27.66758 350.7186 330.9964 352.4106
27.67812 350.7204 330.9846 352.4048
27.68919 350.7086 330.9885 352.4038
27.70031 350.7205 330.9972 352.4077
27.71115 350.716 331.0011 352.4095
27.72221 350.7139 330.9926 352.3942
27.73346 350.7122 330.9863 352.4031
27.74405 350.7202 330.9934 352.4008
27.75595 350.7071 330.9981 352.4038
27.76703 350.7194 330.9871 352.395
27.77804 350.7152 330.9827 352.4006
27.78967 350.7183 330.9704 352.4116
27.80039 350.7231 330.9925 352.416
27.81123 350.7154 330.9871 352.4064
27.82209 350.7138 330.9845 352.4012
27.83385 350.7171 330.9883 352.4061
27.84514 350.7116 330.989 352.4173
27.85572 350.7324 330.982 352.4203
27.86699 350.7167 330.9852 352.4102
27.87763 350.7165 330.9895 352.401
27.8886 350.7216 330.973 352.4145
27.89966 350.7124 330.9819 352.4136
27.91158 350.7133 330.9764 352.4098
27.92247 350.7184 330.9798 352.4165
27.93365 350.7139 330.9936 352.4124
27.94445 350.7235 330.9864 352.4189
27.95541 350.7103 330.9955 352.4021
27.96655 350.7165 330.9857 352.4109
27.97755 350.7119 330.9862 352.4206
27.9894 350.7237 330.9875 352.4172
28.00044 350.7289 330.981 352.4232
28.01136 350.7128 330.9859 352.4244
28.02234 350.7075 330.9759 352.4238
28.03322 350.7164 330.9845 352.412
28.04422 350.722 330.9803 352.4205
28.0551 350.7123 330.9944 352.4132
28.06717 350.7337 330.9769 352.4105
28.07811 350.708 330.9778 352.4168
28.08912 350.7188 330.9776 352.4194
28.10019 350.7178 330.9741 352.4157
28.11104 350.7169 330.9726 352.4175
28.12195 350.724 330.9773 352.4263
28.13318 350.717 330.9821 352.4056
28.14495 350.7141 330.9724 352.4166
28.15656 350.7233 330.976 352.4167
28.16761 350.7161 330.9835 352.4143
28.178 350.7205 330.9718 352.4197
28.18897 350.7136 330.9847 352.4105
28.20004 350.7162 330.9779 352.4093
28.21068 350.7114 330.9839 352.4069
28.22425 350.7113 330.9778 352.4163
28.2348 350.716 330.9877 352.4169
28.24528 350.7183 330.9757 352.4174
28.25559 350.7015 330.9852 352.4183
28.2666 350.7125 330.9851 352.4131
28.27768 350.7095 330.968 352.4136
28.28873 350.7246 330.9702 352.4189
28.30068 350.7153 330.9741 352.4171
28.31149 350.7129 330.9794 352.4228
28.32249 350.7171 330.9656 352.4284
28.33355 350.7056 330.9795 352.4238
28.34454 350.7103 330.9843 352.4211
28.3554 350.7256 330.9759 352.4193
28.36629 350.7095 330.9753 352.4167
28.37834 350.7143 330.9772 352.42
28.38925 350.7132 330.9778 352.4248
28.40047 350.7138 330.9698 352.4289
28.4112 350.7204 330.9878 352.4163
28.42246 350.719 330.9752 352.4236
28.43354 350.7211 330.9843 352.4266
28.44429 350.7165 330.9884 352.4279
28.45606 350.7249 330.9833 352.4288
28.46763 350.7127 330.9703 352.4404
28.47815 350.7302 330.9906 352.42
28.48901 350.7184 330.9734 352.434
28.50017 350.7078 330.9886 352.4206
28.511 350.7119 330.9756 352.4287
28.52189 350.71 330.9744 352.4209
28.53292 350.7218 330.9826 352.4437
28.54482 350.7139 330.9808 352.4271
28.55589 350.7139 330.9889 352.4338
28.56689 350.7179 330.9863 352.4357
28.57819 350.7079 330.9814 352.4287
28.58868 350.7151 330.9862 352.4299
28.60012 350.7289 330.9884 352.432
28.61105 350.7165 330.9854 352.4358
28.62287 350.7077 330.9866 352.4333
28.63369 350.7098 330.9865 352.4404
28.64465 350.7049 330.9815 352.4294
28.65563 350.7277 330.9986 352.4301
28.66664 350.7149 330.9846 352.4242
28.67771 350.7152 330.991 352.4332
28.68875 350.7172 330.9883 352.4389
28.70059 350.7112 330.9768 352.4385
28.71143 350.7227 330.9899 352.4279
28.72235 350.7169 330.9884 352.4351
28.73338 350.7125 330.9945 352.4357
28.74434 350.7198 330.9876 352.4317
28.75551 350.7184 330.9936 352.4403
28.76626 350.7133 330.9941 352.4247
28.77818 350.7253 330.993 352.4392
28.78916 350.7152 331.0007 352.4379
28.80044 350.7208 330.9917 352.4305
28.81212 350.7182 330.9893 352.4248
28.82326 350.7181 330.9858 352.437
28.83413 350.7073 330.9886 352.4354
28.84513 350.7088 330.9928 352.4192
28.85604 350.7115 331.0003 352.4302
28.86725 350.7137 330.9993 352.4415
28.87797 350.7216 330.9888 352.433
28.89263 350.7101 330.9937 352.4341
28.9033 350.7189 330.992 352.4241
28.91425 350.7074 331.0006 352.4419
28.92495 350.7149 330.9983 352.4345
28.93563 350.7189 330.9826 352.4327
28.94609 350.7231 330.9877 352.4395
28.95655 350.7099 330.9941 352.4323
28.96733 350.7081 331.0033 352.4361
28.97824 350.7032 331.0006 352.4244
28.98923 350.7037 330.9933 352.4386
29.0003 350.7151 330.9937 352.4268
29.0111 350.7136 330.9933 352.4334
29.02214 350.7105 330.9822 352.4338
29.03303 350.7036 330.985 352.4187
29.04405 350.7022 330.9908 352.4398
29.05603 350.7054 330.9958 352.4254
29.06734 350.7115 331.0063 352.4238
29.07793 350.7014 330.9975 352.4302
29.08902 350.702 330.996 352.4254
29.10003 350.7122 331.0042 352.4427
29.111 350.7142 330.9855 352.4351
29.12175 350.7104 330.9999 352.4232
29.13393 350.7053 330.9995 352.4296
29.14483 350.7016 331.0035 352.4307
29.15597 350.7017 331.0015 352.4359
29.16673 350.7125 330.9925 352.4253
29.17778 350.7044 331.0012 352.4439
29.18861 350.7106 331.0038 352.4308
29.19999 350.7136 331.0033 352.4236
29.21199 350.7133 331.0087 352.4347
29.22281 350.7011 330.9946 352.4282
29.23374 350.7108 330.9984 352.4311
29.24456 350.6989 330.9974 352.4245
29.25576 350.7066 331.0007 352.4377
29.26645 350.7006 331.0005 352.4335
29.2775 350.7007 331.0005 352.4336
29.28941 350.7102 330.9958 352.4342
29.30057 350.7048 331.0017 352.4248
29.31161 350.7065 330.9892 352.4346
29.32232 350.7064 331.0114 352.4328
29.33332 350.6929 330.9951 352.4328
29.34433 350.7025 331.002 352.435
29.35523 350.7061 330.9929 352.4294
29.36727 350.7039 331.0008 352.4207
29.37839 350.7025 331.0061 352.4319
29.38914 350.7068 330.9973 352.4272
29.40026 350.7048 331.0074 352.4168
29.41106 350.7017 331.0055 352.4235
29.42204 350.7198 330.9986 352.4348
29.43308 350.7128 331.008 352.4183
29.44408 350.7018 330.9927 352.4314
29.45591 350.712 331.0061 352.4322
29.46702 350.7027 331.0055 352.4339
29.47803 350.7077 330.9932 352.4272
29.48887 350.7053 331.0005 352.4327
29.49998 350.7187 331.0003 352.4286
29.51076 350.703 330.9931 352.4385
29.52536 350.6996 330.9998 352.4346
29.53615 350.7014 331.0003 352.4449
29.54657 350.7081 331.0081 352.4313
29.557 350.7115 330.997 352.4288
29.56756 350.704 331.0062 352.4383
29.57841 350.7024 331.0076 352.4207
29.58899 350.717 330.995 352.4256
29.60004 350.7126 331.003 352.4383
29.61155 350.7112 330.9923 352.4326
29.62262 350.7157 331.0045 352.4393
29.63348 350.7158 331.0038 352.4467
29.64451 350.7051 331.003 352.4329
29.6554 350.7151 331.0105 352.4318
29.66644 350.7159 331.0032 352.4358
29.67766 350.7005 331.0004 352.4366
29.68996 350.7154 331.0066 352.4387
29.70104 350.6969 331.0107 352.4374
29.71216 350.713 330.9977 352.4407
29.72357 350.711 331.0005 352.447
29.73416 350.7101 331.0059 352.4355
29.7448 350.703 330.9856 352.4474
29.75549 350.704 330.9986 352.4462
29.76725 350.7084 330.9978 352.4485
29.77808 350.7204 330.9948 352.4548
29.78901 350.722 330.9981 352.443
29.80032 350.7128 330.9996 352.441
29.81137 350.709 331.002 352.4438
29.82191 350.7047 331.0103 352.4495
29.83298 350.7091 331.0022 352.4469
29.84526 350.7206 331.0082 352.4351
29.85633 350.7001 330.9999 352.4443
29.86695 350.7119 331.0085 352.4482
29.87787 350.7094 331.0251 352.4423
29.8888 350.7147 330.9971 352.4419
29.89977 350.7054 331.0021 352.4378
29.91078 350.7166 331.0033 352.4445
29.92266 350.7209 331.0068 352.4399
29.93372 350.7134 331.011 352.4445
29.9451 350.7098 331.0098 352.4546
29.95638 350.7203 331.0049 352.4441
29.96799 350.7138 331.0098 352.4501
29.9795 350.7149 331.0061 352.4528
29.99084 350.7207 331.0074 352.4488
30.00233 350.7091 331.0078 352.4406
30.01321 350.7182 330.9922 352.4404
30.02458 350.7213 331.0049 352.4392
30.0358 350.7163 330.9979 352.4471
30.04684 350.7158 331.0008 352.4386
30.05759 350.7091 331.0101 352.4429
30.06899 350.7036 331.015 352.4348
30.07993 350.709 330.999 352.4406
30.09147 350.7046 330.997 352.4332
30.10248 350.7095 330.9888 352.4438
30.1133 350.6968 331.0095 352.4368
30.1247 350.7003 331.0006 352.4355
30.13609 350.7014 330.9957 352.4375
30.14708 350.7042 331.0002 352.4329
30.15856 350.7127 331.0003 352.4429
30.16951 350.7072 331.0057 352.4199
30.18052 350.7217 331.0082 352.4351
30.19249 350.7057 331.0038 352.4233
30.20361 350.712 331.009 352.4404
30.21546 350.7071 331.0104 352.433
30.22995 350.7158 331.0053 352.4254
30.24174 350.718 331.0037 352.425
30.2543 350.7136 331.0079 352.4317
30.26907 350.7114 331.0059 352.4471
30.27996 350.7112 331.0048 352.4198
30.29076 350.6985 331.0086 352.4306
30.3017 350.7065 331.0027 352.4244
30.31307 350.7011 331.0075 352.4202
30.32389 350.7075 330.9941 352.4276
30.33473 350.6965 330.9942 352.4326
30.3456 350.707 330.999 352.4211
30.35625 350.7064 331.006 352.4304
30.3681 350.7142 330.993 352.4222
30.37877 350.7042 331.0021 352.4131
30.38932 350.6924 330.9923 352.42
30.40003 350.7039 330.9914 352.4318
30.41212 350.705 331.0107 352.418
30.42275 350.7025 330.9941 352.4265
30.43504 350.6974 330.9977 352.4194
30.44569 350.6989 331.0059 352.42
30.45634 350.6952 330.9965 352.4238
30.46685 350.7069 330.9931 352.4289
30.4782 350.6901 330.9992 352.4199
30.48917 350.6906 331.0066 352.4193
30.50014 350.7032 331.0119 352.4174
30.51107 350.7017 330.9918 352.4275
30.52209 350.712 330.9954 352.4276
30.53328 350.7002 330.9914 352.4204
30.54425 350.6906 331.0035 352.4196
30.55587 350.7003 330.9953 352.406
30.56686 350.7041 330.9999 352.4217
30.57786 350.7056 330.9983 352.4192
30.58887 350.6977 330.9993 352.4071
30.59986 350.7032 331.0045 352.4129
30.61118 350.6959 331.0009 352.4173
30.623 350.7023 330.991 352.4147
30.63375 350.6976 331.0004 352.4193
30.64465 350.6938 331.0144 352.4195
30.65566 350.699 331.002 352.4153
30.66654 350.6973 330.9983 352.422
30.6776 350.6964 331.0065 352.4047
30.68851 350.7014 330.9941 352.4156
30.70075 350.6942 331.0009 352.418
30.7117 350.706 330.9981 352.4211
30.72245 350.7024 330.9954 352.407
30.73337 350.6968 331.0059 352.421
30.74436 350.7077 331.0096 352.4055
30.75533 350.7022 331.004 352.4022
30.76642 350.706 331.0001 352.4344
30.77746 350.7002 331.0026 352.423
30.78929 350.6958 331.0078 352.4106
30.80022 350.7094 331.0144 352.4104
30.81136 350.7098 331.0076 352.4179
30.82241 350.7139 331.0079 352.42
30.83317 350.7019 331.0007 352.4203
30.84406 350.7034 331.0105 352.4238
30.85507 350.6973 331.0132 352.4122
30.86721 350.7119 331.003 352.4171
30.87825 350.6895 331.0097 352.4097
30.88916 350.7086 331.0049 352.4237
30.90009 350.699 331.0019 352.4169
30.91091 350.7016 331.0018 352.4186
30.92194 350.693 331.0037 352.423
30.93605 350.6938 331.0107 352.4139
30.94685 350.7001 331.0026 352.4186
30.95801 350.6829 331.0149 352.4129
30.96871 350.7003 330.9983 352.41
30.97909 350.708 331.0101 352.416
30.98956 350.696 331.0141 352.4167
31.00003 350.698 331.0027 352.4259
31.01099 350.6962 331.0011 352.4174
31.02266 350.7073 331.0123 352.4282
31.0337 350.705 331.0076 352.41
31.04457 350.6942 331.0025 352.4118
31.05604 350.7031 331.0064 352.4157
31.06654 350.699 331.0015 352.4046
31.07751 350.7038 331.0022 352.4206
31.08865 350.6937 330.9936 352.4166
31.10051 350.6866 331.0032 352.4164
31.11138 350.6908 331.0078 352.4024
31.12237 350.6949 331.0126 352.4069
31.13346 350.6951 331.0103 352.408
31.14436 350.6928 331.0156 352.4058
31.15524 350.6848 331.018 352.4029
31.16633 350.6876 331.0159 352.4114
31.17858 350.7031 331.0092 352.4131
31.18971 350.6861 331.0108 352.4052
31.20069 350.6812 331.0139 352.4056
31.21145 350.6965 331.0003 352.4058
31.22205 350.6904 331.0175 352.404
31.23311 350.6948 331.0011 352.398
31.24425 350.7033 331.0212 352.3997
31.25607 350.691 331.0154 352.4111
31.26704 350.6997 331.0001 352.4067
31.27798 350.6936 331.005 352.4102
31.28889 350.7006 331.0002 352.4069
31.30002 350.7019 330.9894 352.4207
31.31081 350.7123 331.0119 352.4031
31.32187 350.7003 331.0056 352.4064
31.33385 350.6901 331.001 352.4183
31.34483 350.6946 331.0096 352.415
31.35571 350.698 331.0073 352.4221
31.36675 350.6973 331.0085 352.4315
31.37781 350.7096 331.0171 352.4182
31.38861 350.6977 331.0121 352.418
31.39986 350.6882 331.0273 352.4232
31.41061 350.692 331.0199 352.4111
31.42257 350.6985 331.0065 352.4254
31.43359 350.7058 331.0002 352.4098
31.44447 350.704 331.0189 352.412
31.45558 350.6938 331.0125 352.4216
31.46644 350.6951 331.0049 352.4262
31.47743 350.7071 331.0194 352.4106
31.48835 350.7035 331.017 352.4101
31.5005 350.6967 331.0101 352.4112
31.51457 350.6991 331.0016 352.4151
31.52516 350.6938 331.0154 352.4117
31.53603 350.6967 331.006 352.4117
31.54646 350.6891 331.0206 352.4048
31.55718 350.6848 331.011 352.4147
31.56806 350.6953 331.0014 352.4161
31.5788 350.6885 331.0028 352.416
31.58928 350.6912 331.0023 352.4055
31.60342 350.6921 331.0107 352.4017
31.61408 350.6899 331.0131 352.4109
31.62489 350.7 331.007 352.3981
31.63518 350.7028 331.0007 352.4159
31.64587 350.6918 331.0024 352.4107
31.65683 350.6963 330.998 352.4141
31.66741 350.6883 331.0043 352.4194
31.67909 350.6912 331.0096 352.4077
31.69011 350.6843 331.0069 352.4133
31.70114 350.6915 331.0021 352.4268
31.7123 350.6816 330.9963 352.4086
31.72304 350.6991 331.0023 352.412
31.73404 350.7041 330.989 352.4168
31.74503 350.703 331.0004 352.4273
31.75598 350.7 330.9932 352.4271
31.76778 350.6918 330.9875 352.4178
31.77845 350.6978 330.9857 352.4133
31.78936 350.6852 330.986 352.4039
31.80041 350.6975 331.0047 352.4178
31.81159 350.6944 330.9903 352.4325
31.8224 350.7025 331.0047 352.4214
31.83332 350.7046 331.0004 352.4173
31.84424 350.6877 330.9917 352.4268
31.85525 350.6975 331.0023 352.4294
31.86622 350.7016 330.9964 352.417
31.87806 350.6954 331.005 352.4205
31.88893 350.6995 330.9955 352.4159
31.9001 350.712 331.0004 352.4151
31.91082 350.6952 330.999 352.4171
31.92196 350.7064 330.9884 352.4116
31.93294 350.7102 330.9807 352.4148
31.94482 350.7023 330.9814 352.4193
31.95573 350.7081 330.9974 352.4292
31.96681 350.7052 330.9863 352.4174
31.97776 350.7042 330.993 352.4116
31.98904 350.7035 330.985 352.4103
31.9996 350.7093 330.9871 352.412
32.01062 350.7101 330.9811 352.4052
32.02286 350.7088 330.9863 352.4079
32.03399 350.7026 330.9875 352.4183
32.04475 350.7137 330.9993 352.4112
32.0555 350.7001 330.9792 352.4144
32.06621 350.708 330.9879 352.4232
32.07824 350.7118 330.9855 352.4133
32.0892 350.7108 330.9937 352.4107
32.10035 350.7026 330.9843 352.4216
32.11116 350.7146 330.9958 352.4193
32.12212 350.7067 330.9936 352.4091
32.13313 350.7011 331.0089 352.4015
32.14417 350.7012 330.9925 352.4088
32.15495 350.7014 330.99 352.417
32.16702 350.711 330.9845 352.3992
32.17817 350.7107 330.9969 352.3995
32.18915 350.7081 331.0005 352.4032
32.19991 350.7126 330.9945 352.4066
32.21124 350.7032 330.9953 352.3997
32.2229 350.7122 330.9929 352.4024
32.23343 350.7094 330.9991 352.4084
32.24491 350.706 330.9931 352.4052
32.25579 350.7178 331.0018 352.4197
32.2707 350.7157 330.9929 352.412
32.2812 350.7116 330.9874 352.4064
32.29239 350.7056 331.002 352.3979
32.3031 350.7092 330.9963 352.4156
32.31406 350.7169 330.9828 352.4125
32.32453 350.7208 331.0007 352.3966
32.33564 350.705 330.9905 352.4178
32.3468 350.7153 330.9876 352.4146
32.35719 350.7042 330.9942 352.4012
32.36798 350.7171 330.987 352.4154
32.37872 350.71 330.9791 352.4127
32.38955 350.705 330.986 352.4034
32.40038 350.6985 330.9872 352.411
32.41144 350.7031 330.9926 352.4145
32.42233 350.7089 330.9941 352.4122
32.43335 350.7147 331.0004 352.4092
32.44427 350.713 330.9909 352.4193
32.45528 350.7186 331.0036 352.4176
32.46615 350.7107 330.9831 352.4232
32.47822 350.7104 330.9901 352.4257
32.48936 350.7189 330.9789 352.4236
32.50014 350.7115 330.9737 352.4149
32.51116 350.7079 330.986 352.4184
32.52213 350.7199 330.9827 352.4188
32.53307 350.7153 331.0008 352.4176
32.54401 350.7098 330.9926 352.426
32.55601 350.7116 331.0045 352.4103
32.56703 350.7164 330.9883 352.4275
32.57788 350.7183 330.9973 352.4259
32.58894 350.7095 330.9926 352.4225
32.59992 350.7014 330.9948 352.4238
32.61084 350.7245 330.9896 352.4268
32.62198 350.7208 330.9965 352.4125
32.63381 350.7106 330.9938 352.4253
32.64497 350.7117 330.9918 352.4236
32.65593 350.7121 330.9914 352.4174
32.66666 350.7133 331.0045 352.4251
32.67791 350.7127 330.9845 352.4257
32.68899 350.7211 331.0098 352.4151
32.69966 350.7146 331.0028 352.42
32.71158 350.7146 330.9997 352.4128
32.72267 350.706 331.0092 352.4013
32.73344 350.7096 330.9995 352.4212
32.74462 350.6987 331.0135 352.4166
32.75562 350.7144 331.0009 352.4218
32.76676 350.7115 331.0068 352.4222
32.78047 350.7146 331.0038 352.422
32.79208 350.6982 331.0015 352.4143
32.80344 350.7004 330.9917 352.4251
32.81689 350.7141 330.9709 352.4333
32.82824 350.7141 331.0008 352.4206
32.83931 350.7042 331.0082 352.4214
32.84981 350.7145 331.006 352.4172
32.86026 350.6964 330.9911 352.4149
32.87068 350.7008 330.9946 352.4146
32.8811 350.7052 330.9906 352.4238
32.892 350.7066 331.0035 352.4168
32.90288 350.704 330.9952 352.4218
32.91405 350.7162 331.0034 352.4104
32.92468 350.702 330.997 352.416
32.93954 350.7016 330.9933 352.4105
32.95008 350.7115 330.9928 352.4181
32.96115 350.6974 330.989 352.4203
32.97213 350.705 330.984 352.4038
32.98357 350.71 330.9949 352.4165
32.9945 350.7101 330.9804 352.4322
33.005 350.7204 330.9967 352.423
33.01582 350.7109 330.9813 352.4269
33.02698 350.7182 330.9894 352.4196
33.03752 350.6989 330.9831 352.4261
33.04795 350.7028 330.9878 352.4231
33.05846 350.7122 330.9876 352.416
33.06965 350.7119 330.9886 352.425
33.08037 350.7199 330.9929 352.4201
33.09087 350.7212 330.9854 352.4227
33.10133 350.7151 331.0055 352.4298
33.11232 350.7213 330.9873 352.4203
33.12331 350.7092 330.9902 352.4105
33.13362 350.7087 330.9893 352.4242
33.14441 350.7062 330.9937 352.4191
33.15535 350.7234 331.0101 352.4189
33.16639 350.702 330.9953 352.4218
33.17732 350.7145 331.0111 352.4155
33.18928 350.7186 330.9832 352.4127
33.20021 350.714 330.9902 352.4223
33.21123 350.7132 330.9956 352.4195
33.22219 350.7106 330.9791 352.4274
33.23321 350.7092 330.9886 352.4184
33.24439 350.7057 330.9832 352.4196
33.25508 350.7088 330.9907 352.4137
33.26751 350.7129 330.9822 352.4188
33.27839 350.7235 330.9995 352.4219
33.28918 350.709 330.9864 352.4146
33.30015 350.7115 330.9953 352.4053
33.31105 350.7078 330.978 352.4136
33.3221 350.7095 331.0013 352.4089
33.33302 350.7115 330.9916 352.4133
33.34398 350.7106 330.9896 352.4028
33.3564 350.7178 330.9842 352.4158
33.36739 350.7224 330.9855 352.4151
33.37824 350.7142 330.9858 352.4085
33.38947 350.7127 330.9716 352.4124
33.4002 350.7046 330.9718 352.4116
33.41127 350.7107 330.979 352.412
33.42239 350.716 330.9946 352.4081
33.43322 350.7039 330.9784 352.4135
33.44405 350.7061 330.9943 352.4061
33.45509 350.7105 330.9807 352.4074
33.46722 350.7177 330.9869 352.4145
33.47816 350.706 330.9872 352.4054
33.48905 350.7145 330.9802 352.4066
33.50016 350.7168 330.9763 352.4139
33.51107 350.7108 330.9778 352.4109
33.52231 350.7225 330.978 352.4094
33.53295 350.7084 330.9794 352.4193
33.54398 350.711 330.973 352.4099
33.55586 350.719 330.9724 352.4148
33.5669 350.7139 330.9758 352.417
33.5818 350.7122 330.976 352.4098
33.59232 350.7138 330.9814 352.4162
33.60298 350.7125 330.9757 352.4175
33.61353 350.7111 330.9792 352.4304
33.62423 350.7149 330.9837 352.4215
33.6349 350.7158 330.9816 352.406
33.64566 350.71 330.9782 352.4104
33.6563 350.7099 330.9782 352.4023
33.66686 350.7158 330.9742 352.4341
33.67757 350.7103 330.9747 352.4197
33.68872 350.715 330.9895 352.4213
33.69952 350.7172 330.9802 352.4156
33.71145 350.7149 330.9769 352.4201
33.72246 350.714 330.9757 352.4235
33.73368 350.7123 330.9696 352.4271
33.74439 350.7108 330.9826 352.4317
33.75534 350.7172 330.9811 352.4295
33.7664 350.7144 330.9859 352.4229
33.77779 350.7144 330.9808 352.4338
33.78883 350.7062 330.9883 352.4294
33.79977 350.7094 330.9843 352.4349
33.81074 350.7211 330.9797 352.4209
33.82175 350.715 330.9783 352.4307
33.8337 350.7298 330.978 352.426
33.84466 350.7159 330.9852 352.4165
33.85564 350.7255 330.9796 352.4197
33.86665 350.709 330.969 352.4276
33.8773 350.7203 330.9782 352.4269
33.88955 350.7214 330.9823 352.4307
33.90043 350.705 330.9733 352.4271
33.91129 350.7293 330.9795 352.4287
33.92225 350.7182 330.9633 352.4305
33.93325 350.7265 330.9772 352.4317
33.94426 350.7384 330.9636 352.4234
33.95513 350.732 330.9705 352.4344
33.96608 350.7293 330.9661 352.435
33.97865 350.7352 330.9905 352.4308
33.98959 350.7334 330.9785 352.4384
34.00068 350.7358 330.9817 352.4248
34.01161 350.7209 330.9864 352.4366
34.02271 350.7298 330.9811 352.4392
34.03665 350.7327 330.984 352.4348
34.04723 350.7175 330.9841 352.429
34.05798 350.7239 330.978 352.4398
34.06861 350.7271 330.9728 352.4359
34.07919 350.7257 330.9738 352.4344
34.08978 350.7356 330.9733 352.4367
34.10043 350.7299 330.9877 352.4305
34.11128 350.717 330.9848 352.4371
34.12233 350.7247 330.9807 352.4386
34.13326 350.7205 331.0016 352.4332
34.14424 350.719 330.9932 352.4344
34.15517 350.7265 330.9856 352.4489
34.16624 350.7316 330.9901 352.4397
34.18056 350.7251 330.9837 352.4418
34.19118 350.7213 330.9759 352.4396
34.20214 350.7276 330.9747 352.4395
34.21316 350.7408 330.992 352.4318
34.22394 350.7265 330.9922 352.4308
34.23465 350.729 330.9965 352.4374
34.24499 350.7238 330.9806 352.4395
34.25607 350.7361 330.9798 352.4359
34.26725 350.724 330.9795 352.4369
34.27814 350.7224 330.9756 352.4348
34.2888 350.7253 330.9856 352.4214
34.30005 350.7217 331.0011 352.4288
34.31081 350.7293 330.983 352.4362
34.32174 350.726 330.9833 352.4193
34.33368 350.7284 330.9769 352.436
34.34483 350.7241 331.0028 352.4326
34.35589 350.7184 330.9732 352.4272
34.36666 350.7258 330.9864 352.4323
34.37757 350.725 330.9957 352.4295
34.38866 350.7216 330.9799 352.4193
34.3996 350.7262 330.9904 352.4407
34.41162 350.724 330.9746 352.4252
34.42247 350.7223 330.987 352.4289
34.43349 350.7171 330.9843 352.4362
34.44442 350.7147 330.9905 352.4299
34.45542 350.7219 330.9806 352.4274
34.46631 350.7138 330.9799 352.4337
34.47734 350.7186 330.9906 352.4316
34.48934 350.7092 330.9895 352.421
34.5003 350.7147 330.9848 352.4317
34.51151 350.7237 330.9841 352.434
34.52219 350.7135 330.9801 352.426
34.53326 350.7187 330.9864 352.4293
34.54514 350.7173 330.9843 352.4287
34.55616 350.7142 330.9889 352.4353
34.56717 350.7189 330.989 352.4297
34.57803 350.7179 330.9855 352.4182
34.58908 350.713 330.9838 352.429
34.59998 350.7073 330.9934 352.438
34.61096 350.7302 330.994 352.4276
34.62204 350.7219 330.9939 352.431
34.63293 350.7205 330.9842 352.4362
34.64486 350.715 330.9927 352.4292
34.65596 350.709 330.9921 352.4261
34.66712 350.708 330.9882 352.4225
34.67777 350.7126 330.9962 352.4224
34.68902 350.7103 330.9776 352.4395
34.69978 350.7142 330.9763 352.4294
34.71064 350.7012 330.9977 352.4239
34.72189 350.7076 331.0009 352.4267
34.73365 350.7092 330.9944 352.4247
34.74468 350.71 330.9736 352.434
34.75558 350.7095 330.9798 352.4248
34.76663 350.7047 330.989 352.4305
34.77757 350.7221 330.9968 352.4327
34.78854 350.7131 330.9914 352.4267
34.79938 350.7094 330.9938 352.4416
34.81433 350.7055 330.9927 352.4275
34.8249 350.7067 330.9866 352.4232
34.83527 350.7171 330.9863 352.4297
34.84576 350.7004 330.9903 352.4306
34.85629 350.7181 330.999 352.4333
34.86736 350.7135 330.9952 352.434
34.87812 350.7206 330.9919 352.439
34.88961 350.7143 331.0025 352.4348
34.90053 350.7151 330.9894 352.4335
34.91144 350.7139 330.9967 352.427
34.9226 350.6997 330.9797 352.4372
34.93314 350.7073 330.9911 352.4257
34.94415 350.7131 330.9766 352.4161
34.95502 350.705 330.992 352.4175
34.96709 350.714 330.9929 352.423
34.9782 350.7135 330.983 352.4294
34.98907 350.7208 331.0037 352.4263
34.99995 350.7139 330.9973 352.4277
35.01095 350.7159 331.0001 352.4199
35.02194 350.715 331.0006 352.4215
35.03296 350.7028 330.9968 352.4222
35.0449 350.7075 330.9923 352.4243
35.05578 350.7062 331.0038 352.4282
35.06678 350.7121 330.9897 352.4283
35.07774 350.7048 330.9865 352.4271
35.08876 350.7085 330.9861 352.429
35.0997 350.7118 330.994 352.4152
35.11058 350.7053 330.9917 352.4301
35.1226 350.7011 331.0009 352.4295
35.13384 350.7036 330.9942 352.4131
35.14458 350.7144 330.996 352.4181
35.15552 350.7066 331.0002 352.4225
35.16651 350.7055 330.9883 352.423
35.17738 350.7005 330.9954 352.4241
35.18845 350.709 330.9846 352.4282
35.20038 350.7024 330.9775 352.4223
35.21136 350.7104 330.9904 352.4134
35.22234 350.6967 330.9929 352.4167
35.23349 350.7068 330.9916 352.4183
35.24453 350.7032 330.9844 352.4225
35.25518 350.7063 330.9828 352.4226
35.26628 350.7065 330.9898 352.417
35.2782 350.7133 330.9903 352.4137
35.28932 350.7075 330.9862 352.4105
35.30015 350.7052 330.9885 352.3951
35.31115 350.7069 330.9859 352.407
35.32204 350.6999 330.984 352.4112
35.33302 350.6938 330.989 352.4169
35.344 350.714 330.9815 352.3939
35.356 350.7075 330.9858 352.4099
35.36692 350.7047 330.9875 352.4135
35.37825 350.7043 330.9964 352.4053
35.38921 350.7001 331.0001 352.3898
35.40022 350.7015 330.9984 352.4018
35.41124 350.709 330.9993 352.4152
35.42214 350.7122 330.9971 352.4084
35.43316 350.7043 330.9945 352.4086
35.44427 350.7122 330.9974 352.4043
35.45506 350.7034 330.9954 352.4103
35.46704 350.7241 330.9997 352.4178
35.47826 350.7172 331.0076 352.4054
35.48903 350.7133 331.0046 352.4189
35.50008 350.7195 331.0021 352.403
35.51467 350.7218 330.999 352.4152
35.52513 350.7163 331.0005 352.415
35.53559 350.722 330.9922 352.4232
35.54617 350.7118 330.9906 352.4191
35.55664 350.7095 331.0002 352.4203
35.56712 350.7276 330.9938 352.4152
35.5778 350.7108 331.0037 352.4153
35.58887 350.7261 331.0019 352.424
35.59995 350.7153 330.9889 352.418
35.61067 350.7153 331.0008 352.4084
35.62167 350.7163 330.9896 352.4118
35.6337 350.706 330.9993 352.4168
35.64472 350.7036 330.9831 352.4257
35.65562 350.7169 330.9965 352.4105
35.66666 350.7033 330.99 352.4204
35.67774 350.7104 330.9903 352.4181
35.68884 350.7071 330.9856 352.4225
35.69949 350.7185 330.9946 352.4179
35.71145 350.7101 330.9828 352.4229
35.72249 350.7169 330.9814 352.4288
35.73343 350.7047 330.9894 352.4325
35.74445 350.7123 330.9883 352.4309
35.75557 350.714 330.9846 352.4214
35.76628 350.7136 330.9773 352.4235
35.77734 350.7115 330.9967 352.4241
35.78931 350.7138 330.9932 352.4309
35.80031 350.7126 330.9961 352.4341
35.81124 350.7163 330.9916 352.4285
35.82227 350.7187 330.9885 352.4262
35.83321 350.725 330.994 352.4212
35.84404 350.7104 330.9952 352.4341
35.85509 350.716 330.9912 352.4295
35.86716 350.7037 330.9914 352.4391
35.8785 350.7148 330.9987 352.435
35.889 350.6937 330.9953 352.4343
35.89999 350.6992 331.0062 352.4339
35.91113 350.7074 330.9929 352.4325
35.92204 350.701 331.0036 352.4193
35.93282 350.6937 330.9976 352.43
35.9449 350.7 330.9977 352.4266
35.95579 350.7045 331.0052 352.4327
35.96682 350.7008 331.0045 352.4344
35.97776 350.7002 330.9975 352.4176
35.98879 350.7111 331.0009 352.4329
35.99977 350.7058 331.007 352.4314
36.01087 350.712 331.003 352.42
36.02163 350.7076 330.9844 352.424
36.03409 350.7077 331.0001 352.4131
36.04478 350.7086 331.0006 352.4402
36.05595 350.7096 331.002 352.436
36.06713 350.7118 331.005 352.4399
36.07763 350.7057 331.0144 352.4275
36.08895 350.7114 331.0194 352.43
36.10108 350.7027 330.9989 352.4316
36.11156 350.6984 330.9979 352.4382
36.12239 350.7016 331.0096 352.4372
36.13347 350.7105 331.0185 352.4357
36.14471 350.7049 331.0101 352.4325
36.15521 350.7068 331.0158 352.4277
36.16634 350.7094 331.0024 352.4292
36.17723 350.7119 331.018 352.4341
36.19205 350.7117 331.0129 352.4354
36.20238 350.7031 330.9967 352.4334
36.21301 350.7129 330.997 352.4265
36.22409 350.7051 331.0015 352.4356
36.23461 350.7136 330.994 352.4239
36.24496 350.7003 331.026 352.4192
36.25574 350.7079 331.0077 352.4328
36.2674 350.7035 331.0087 352.4273
36.27834 350.7144 330.997 352.4254
36.28931 350.7032 331.0083 352.4252
36.29995 350.7021 331.0086 352.4218
36.31098 350.7024 330.9939 352.4226
36.32188 350.7094 330.9984 352.4198
36.3328 350.7029 330.9997 352.4218
36.34486 350.6996 330.9999 352.4234
36.35579 350.6978 330.9931 352.4207
36.36697 350.711 330.9918 352.4264
36.37815 350.7112 330.9939 352.4301
36.38873 350.7086 330.9966 352.4292
36.39972 350.7051 331.001 352.4121
36.41073 350.7115 331.0081 352.42
36.42268 350.7046 331.0079 352.4103
36.43368 350.7024 331.0023 352.4184
36.44473 350.7115 331.0029 352.4399
36.45569 350.6999 331.0069 352.4303
36.46649 350.7131 331.012 352.4274
36.47747 350.7094 330.9992 352.4408
36.48837 350.7045 331.008 352.4285
36.50038 350.7072 331.0101 352.4318
36.51135 350.7016 331.0163 352.4346
36.52226 350.7017 330.9985 352.4387
36.53345 350.7018 331.0043 352.4329
36.54438 350.7122 331.0005 352.4362
36.55511 350.7274 331.0026 352.4319
36.56629 350.7158 330.9961 352.445
36.57821 350.7175 331.0079 352.4274
36.58921 350.717 331.006 352.4271
36.60011 350.7101 331.008 352.4354
36.61114 350.7232 331.0061 352.4287
36.62302 350.7117 331.017 352.4403
36.63395 350.7095 331.0059 352.4438
36.64436 350.7144 331.0137 352.4474
36.65507 350.716 331.0184 352.4453
36.66699 350.7158 331.0107 352.4417
36.67856 350.7149 330.9991 352.4389
36.69294 350.7076 331.0113 352.4332
36.70341 350.7196 331.0019 352.4389
36.7142 350.715 331.014 352.4384
36.72478 350.7178 331.0128 352.4366
36.73567 350.712 331.007 352.4379
36.74644 350.7141 331.0071 352.4427
36.75682 350.7122 331.0044 352.4348
36.76725 350.714 331.0064 352.4417
36.77787 350.708 331.0012 352.44
36.79167 350.7099 331.0004 352.4365
36.8021 350.7153 330.9963 352.4535
36.81246 350.7234 331.0046 352.4459
36.82294 350.7104 331.0084 352.4404
36.83361 350.7168 330.9887 352.4561
36.84467 350.7189 330.9973 352.4493
36.85559 350.7179 330.995 352.4431
36.86661 350.7263 331.0127 352.4367
36.87753 350.7175 330.9998 352.446
36.88876 350.7227 331.0028 352.4369
36.89939 350.7103 330.9991 352.434
36.91156 350.7045 331.0154 352.4405
36.9228 350.7086 330.9936 352.4441
36.93329 350.717 331.0009 352.4559
36.94436 350.7127 331.0087 352.4474
36.95523 350.7137 331.0014 352.4412
36.96625 350.7209 331.0014 352.4444
36.97731 350.7098 331.007 352.4391
36.98986 350.7178 331.0121 352.4442
37.00095 350.7152 331.0059 352.4401
37.05095 350.7148 330.9987 352.4387
37.08071 350.7159 330.9945 352.4361
37.09311 350.7231 330.999 352.4453
37.10427 350.7241 331.0027 352.4475
37.11623 350.7032 330.9886 352.4411
37.12783 350.7188 331.0014 352.4461
37.13904 350.7248 330.9967 352.4497
37.15045 350.726 330.9817 352.4508
37.16164 350.7095 331.0016 352.4438
37.17266 350.7125 331.0007 352.4452
37.18413 350.7095 331.0017 352.4452
37.19699 350.7048 330.9995 352.4422
37.20967 350.7087 330.9817 352.4521
37.22077 350.7187 331.0113 352.4345
37.23431 350.7085 330.996 352.4529
37.2454 350.7222 330.9888 352.4542
37.257 350.7118 330.9877 352.4523
37.26809 350.7228 330.9896 352.4575
37.27908 350.7134 330.9821 352.4532
37.29064 350.7141 331.0082 352.4595
37.30136 350.7243 330.9987 352.4494
37.31248 350.7051 330.9917 352.4523
37.32428 350.7161 331.0035 352.4541
37.33545 350.7167 331.0005 352.4554
37.34648 350.7247 331.0099 352.4628
37.36039 350.7107 331.0016 352.4547
37.37207 350.7046 330.9974 352.4629
37.38454 350.7065 330.9989 352.4477
37.39515 350.7138 331.0032 352.4612
37.40635 350.7147 330.9982 352.4621
37.41706 350.707 331.0135 352.4485
37.42787 350.7101 330.9998 352.4678
37.43945 350.7086 331.0065 352.4632
37.45222 350.7121 331.0105 352.4489
37.46319 350.714 331.009 352.4686
37.47598 350.7165 331.0083 352.4557
37.48867 350.7137 331.0106 352.4537
37.50166 350.7082 331.0059 352.4658
37.51259 350.7194 331.0172 352.442
37.52544 350.7095 330.9994 352.4494
37.53611 350.7137 331.0073 352.4451
37.54877 350.7106 331.0121 352.4561
37.55985 350.7016 331.006 352.4487
37.57277 350.7102 331.0124 352.4456
37.58336 350.7115 331.0079 352.444
37.59641 350.7098 331.0102 352.44
37.60787 350.7071 331.0172 352.4464
37.61891 350.7154 331.0102 352.4464
37.63049 350.7097 330.9885 352.4455
37.64161 350.7224 330.9899 352.4463
37.65251 350.7184 331.0003 352.4459
37.6638 350.7091 330.9896 352.4456
37.67723 350.7139 331.0011 352.4428
37.68899 350.7033 330.9921 352.4432
37.70022 350.7225 331.0064 352.45
37.71138 350.7135 331.0125 352.4437
37.72264 350.707 331.0114 352.4444
37.73582 350.7161 331.0072 352.4363
37.74931 350.7178 331.0029 352.4463
37.76263 350.7036 331.019 352.4261
37.77407 350.7177 331.0002 352.4191
37.78488 350.7127 331.0045 352.4328
37.79598 350.7257 330.9958 352.4426
37.80873 350.7129 330.9997 352.4423
37.81981 350.7086 330.9945 352.4215
37.83122 350.714 331.0081 352.4315
37.84233 350.7173 331.0092 352.4247
37.85515 350.7254 330.9932 352.4437
37.86609 350.7023 331.0013 352.4411
37.87747 350.7082 330.9988 352.4264
37.8904 350.7066 331.0045 352.4295
37.90458 350.7151 331.0037 352.4262
37.91601 350.721 331.0009 352.4259
37.92858 350.7276 331.0052 352.4153
37.94017 350.7086 330.9956 352.4206
37.95186 350.7206 330.9944 352.4117
37.96304 350.7025 331.0098 352.4202
37.97456 350.7144 330.9955 352.4218
37.98561 350.7196 331.0073 352.4157
37.99692 350.6967 330.9931 352.4388
38.00816 350.7151 331 352.4389
38.01872 350.7153 330.9887 352.424
38.02924 350.7152 331.0047 352.4201
38.0399 350.7134 330.9957 352.4221
38.05075 350.7121 330.9862 352.4352
38.06172 350.7035 331.0088 352.4212
38.07338 350.717 331.0047 352.4316
38.08408 350.7194 330.9932 352.4245
38.0955 350.7126 330.9906 352.4228
38.10624 350.7174 331.0144 352.4197
38.117 350.709 330.9991 352.4307
38.12901 350.7052 330.9852 352.4389
38.14006 350.7127 330.9991 352.4343
38.15556 350.7143 331.0011 352.4215
38.16632 350.7017 330.9959 352.4338
38.177 350.7125 330.9814 352.4283
38.18748 350.7121 330.9942 352.4348
38.19825 350.7145 330.9912 352.4332
38.20889 350.7189 331.003 352.4333
38.21936 350.7178 331.0005 352.4336
38.23038 350.7071 330.9967 352.4335
38.24115 350.7167 330.9944 352.4457
38.25185 350.7174 330.9915 352.448
38.26276 350.7164 331.0069 352.4388
38.27426 350.7184 331.0098 352.4432
38.28506 350.7166 330.9879 352.4378
38.2961 350.709 330.9992 352.4372
38.30689 350.7079 331.0038 352.4372
38.31861 350.7148 331.0028 352.4388
38.3298 350.7042 331.0022 352.4409
38.34066 350.725 331.0007 352.4391
38.35126 350.7214 330.9981 352.4503
38.36198 350.7128 330.9954 352.4597
38.37346 350.7032 330.9993 352.4326
38.38408 350.7159 331.0017 352.443
38.39467 350.7123 331.0111 352.4406
38.4063 350.7105 330.9964 352.4466
38.41671 350.6961 330.9996 352.4559
38.42866 350.7085 331.0037 352.4443
38.43982 350.7164 331.0094 352.446
38.4506 350.712 331.0057 352.4458
38.46185 350.7148 331.0025 352.4369
38.4727 350.7266 331.0001 352.4355
38.48341 350.7231 331.0111 352.4445
38.49439 350.7066 331.0156 352.4471
38.5056 350.7128 331.0133 352.4552
38.51747 350.7124 330.9914 352.4484
38.52864 350.7201 330.993 352.4415
38.53969 350.7192 331.0038 352.4453
38.55469 350.7162 330.9977 352.4542
38.56635 350.7108 330.9993 352.4415
38.57692 350.7187 331.0006 352.436
38.58734 350.7169 330.9987 352.4525
38.59797 350.7087 331.01 352.4442
38.60867 350.7151 331.0142 352.4348
38.6192 350.7062 331.0048 352.4399
38.62973 350.7044 331.0105 352.4434
38.64137 350.7145 330.9998 352.4454
38.66074 0 0 0
