時間[s] x軸周り[deg] y軸周り[deg] z軸周り[deg]
0 0 0 0
0.02 0 0 0
0.05333333 0 0 0
0.06701623 0 0 0
0.07677843 0 0 0
0.1101118 0 0 0
0.1434451 0 0 0
0.1767784 0 0 0
0.2101118 0 0 0
0.2434451 0 0 0
0.2767784 0 0 0
0.3101118 0 0 0
0.3434451 0 0 0
0.3767784 0 0 0
0.4101118 0 0 0
0.4434451 0 0 0
0.4767784 0 0 0
0.5101117 0 0 0
0.5434451 0 0 0
0.5767784 0 0 0
0.6101117 0 0 0
0.6434451 0 0 0
0.6767784 0 0 0
0.7101117 0 0 0
0.743445 0 0 0
0.7767784 0 0 0
0.8101117 0 0 0
0.8434451 0 0 0
0.8767784 0 0 0
0.9101117 0 0 0
0.943445 346.1074 94.36199 9.331034
0.9482864 345.3664 95.4646 9.617776
0.9603999 344.7604 96.64828 9.608041
0.9733877 344.0657 97.81307 9.747581
0.9842952 343.5759 98.85532 9.873519
0.9964647 343.2702 100.0663 9.888403
1.008354 343.1235 101.1535 9.980032
1.02035 343.2022 102.0491 9.881847
1.032543 343.5603 102.7152 9.847505
1.043383 343.7664 103.5405 9.520656
1.05522 343.6926 104.3673 9.002369
1.066166 343.6733 104.9692 8.571733
1.077332 343.8309 105.3928 8.098244
1.088902 344.1012 105.8852 7.712055
1.100509 344.4897 106.4121 7.183319
1.111382 344.8055 106.6723 6.75518
1.132227 345.2185 106.8046 6.222707
1.139158 345.439 106.7831 5.656785
1.147379 345.6157 106.8992 5.16306
1.156293 345.8435 106.9733 4.870945
1.166345 346.101 106.9818 4.745861
1.176942 346.2778 106.901 4.744939
1.18771 346.3452 106.8665 4.740609
1.198772 346.4041 106.7897 4.732414
1.210684 346.3401 106.7594 4.735583
1.221664 346.3912 106.6689 4.726684
1.23253 346.3657 106.5022 4.707715
1.243683 346.3941 106.2879 4.598752
1.255375 346.4125 106.1528 4.49876
1.265951 346.4894 106.0453 4.410289
1.277149 346.4889 105.9188 4.338983
1.287954 346.4657 105.766 4.276096
1.298803 346.3635 105.6513 4.145317
1.309844 346.0216 105.629 3.913137
1.321219 345.7372 105.5966 3.778509
1.33331 345.4887 105.5545 3.747543
1.343845 345.2725 105.5003 3.715346
1.356764 345.088 105.4089 3.670063
1.366815 344.8727 105.2804 3.609484
1.377214 344.6486 105.1589 3.474636
1.402377 344.368 104.9705 3.351393
1.411277 343.5575 104.7509 3.013807
1.421123 343.2774 104.7223 2.863154
1.432144 343.0413 104.7101 2.729859
1.443001 342.8743 104.7324 2.527899
1.455501 342.5571 104.8117 2.312818
1.465901 342.3226 104.8108 2.209233
1.477182 342.213 104.8334 2.276935
1.488314 342.1152 104.856 2.330775
1.499109 342.0433 104.9625 2.427106
1.51049 342.0112 105.1093 2.511637
1.521174 342.0562 105.2573 2.612925
1.532397 342.132 105.3711 2.653156
1.543113 342.291 105.5219 2.706077
1.555434 342.5847 105.7513 2.707886
1.566473 342.941 105.9883 2.731807
1.577349 343.3663 106.2532 2.778629
1.588037 343.8183 106.5267 2.875571
1.598925 344.3719 106.8273 2.918416
1.610041 344.9437 107.1841 2.913407
1.620991 345.5311 107.5347 2.869159
1.63286 346.1571 107.9344 2.800209
1.644006 346.7154 108.3341 2.678879
1.654782 347.3109 108.7498 2.501296
1.666182 348 109.1835 2.281094
1.676766 348.6638 109.5532 1.999148
1.687887 349.2981 109.8863 1.746046
1.699408 349.9835 110.1427 1.451988
1.710174 350.6234 110.2951 1.202769
1.721744 351.1543 110.5096 0.9973266
1.732243 351.5475 110.6991 0.7996074
1.743438 351.9331 110.8446 0.6474847
1.755101 352.3888 110.9243 0.5577738
1.766204 352.7333 111.0287 0.3693921
1.77724 353.0446 111.0991 0.1655372
1.788575 353.2703 111.0769 359.9363
1.799728 353.4617 111.0265 359.6763
1.810926 353.6251 110.9685 359.5091
1.82156 353.6808 110.8698 359.3675
1.832743 353.7663 110.8181 359.2538
1.843434 353.7221 110.7394 359.1119
1.854919 353.7184 110.6969 358.9644
1.865648 353.7164 110.6024 358.712
1.87813 353.7955 110.4086 358.5325
1.888214 353.9138 110.2716 358.3195
1.89999 354.0662 110.0819 358.1544
1.910751 354.1374 109.9261 357.9832
1.921455 354.2899 109.6366 357.8604
1.93229 354.5817 109.5175 357.7305
1.943747 354.8438 109.4526 357.6445
1.954348 355.2398 109.3745 357.5611
1.965672 355.6154 109.3294 357.447
1.976382 355.8408 109.331 357.397
1.987601 355.8748 109.323 357.388
1.998127 356.0829 109.2836 357.3253
2.009225 356.6481 109.3391 357.1975
2.019938 357.077 109.3939 357.2425
2.031065 357.5292 109.5421 357.3633
2.042259 357.8813 109.6577 357.4301
2.052712 358.1584 109.6188 357.5414
2.063766 358.4052 109.5266 357.5466
2.075019 358.7086 109.4692 357.5674
2.08569 358.9589 109.41 357.5274
2.098411 359.2214 109.212 357.3919
2.109156 359.4076 108.8161 357.235
2.119846 359.6111 108.3348 357.1691
2.13105 359.8186 107.2869 357.2928
2.141815 0.08769241 106.3898 357.4402
2.152579 0.3429456 105.333 357.7713
2.163507 0.5116658 104.1686 358.0731
2.175381 0.660235 102.8365 358.1921
2.186782 0.6340507 101.5232 358.2335
2.197283 0.5993787 100.3031 358.1858
2.208911 0.4708 98.88728 357.9562
2.219421 0.2979217 97.55532 357.6149
2.230643 359.9316 96.15849 357.1427
2.241236 359.3292 94.82664 356.7072
2.253501 358.5065 93.45766 356.1533
2.264735 357.837 92.23158 355.6611
2.275336 357.556 90.92092 355.2318
2.286527 357.6464 89.53509 354.8212
2.297307 357.9059 88.25767 354.5065
2.308326 358.3592 87.13642 354.1543
2.31911 358.6666 86.05462 353.7631
2.331517 358.8503 84.96516 353.3641
2.342727 358.7217 84.39384 352.7189
2.353386 358.4876 83.92535 351.9911
2.364145 358.3056 83.48126 351.1636
2.375183 358.3478 83.05107 350.4433
2.386101 358.3695 82.71629 349.7153
2.397022 358.3598 82.61719 348.8563
2.409188 358.4493 82.53017 348.0398
2.420782 358.5684 82.76427 347.165
2.431205 358.7639 82.90096 346.4037
2.442206 358.9485 83.03374 345.5928
2.453014 359.1055 83.06527 344.8421
2.463878 359.347 83.15653 344.121
2.475033 359.5254 83.23693 343.5141
2.486591 359.7263 83.35681 343.0205
2.498128 359.9321 83.54606 342.6144
2.508715 0.1499117 83.78498 342.2773
2.519557 0.349649 84.02351 342.0468
2.530876 0.5552775 84.26188 341.8098
2.541759 0.5779574 84.61174 341.6658
2.552734 0.5355331 84.96248 341.5641
2.564664 0.5595918 85.29794 341.6108
2.57568 0.65231 85.53953 341.7568
2.586646 0.7358758 85.75832 341.935
2.597478 0.8860201 86.00518 342.1877
2.608649 1.004936 86.33105 342.347
2.619447 1.061072 86.67598 342.443
2.630697 1.06454 87.0112 342.5133
2.64253 1.113272 87.32697 342.6022
2.653869 1.195245 87.57364 342.7959
2.664392 1.219252 87.80942 343.0565
2.675099 1.203893 88.00957 343.4008
2.686097 1.120748 88.15391 343.7227
2.697222 1.003419 88.29734 343.9634
2.708245 0.7613682 88.40626 344.1879
2.720079 0.5349508 88.40985 344.4424
2.731427 0.4173761 88.4103 344.8014
2.742487 0.2939521 88.45824 345.282
2.752856 0.2594443 88.52453 345.7106
2.765074 0.1756424 88.51943 346.1535
2.775773 0.03174458 88.55773 346.435
2.786898 359.8943 88.661 346.6552
2.797923 359.7746 88.87389 346.7538
2.809075 359.6131 89.14911 346.8608
2.820042 359.4868 89.52552 346.9535
2.830822 359.4476 89.7422 347.0353
2.841766 359.3819 89.80145 347.1289
2.852875 359.38 89.78653 347.2295
2.863779 359.2952 89.87283 347.3383
2.874609 359.1988 89.98122 347.5242
2.886991 358.9543 90.12395 347.8112
2.897657 358.8743 90.26263 347.9485
2.908625 358.7967 90.36279 348.0713
2.919407 358.6675 90.48048 348.11
2.93072 358.5088 90.66331 348.0719
2.942744 358.313 90.99646 348.0238
2.954436 358.245 91.31035 348.0225
2.965665 358.2985 91.53301 348.0601
2.976306 358.3023 91.71613 348.1028
2.987511 358.2992 91.87276 348.0843
2.998113 358.1951 92.01546 348.1128
3.009258 358.3503 92.20737 348.0206
3.021732 358.4489 92.36732 347.9429
3.032253 358.4935 92.4987 347.8784
3.043291 358.6339 92.72067 347.8379
3.054385 358.7158 92.93994 347.8232
3.065144 358.7565 93.13338 347.7979
3.076265 358.6814 93.29423 347.6906
3.086906 358.55 93.48553 347.5761
3.099101 358.5241 93.68576 347.5755
3.110274 358.6437 93.84234 347.6805
3.121031 358.7197 93.97523 347.7632
3.132436 358.75 94.06813 347.7721
3.142891 358.6923 94.12823 347.7331
3.154411 358.6671 94.18839 347.6628
3.165117 358.7486 94.28124 347.6164
3.176726 358.8347 94.36343 347.5395
3.187831 358.9133 94.43044 347.5569
3.199009 359.0391 94.52505 347.5042
3.209896 359.0679 94.65975 347.5096
3.220934 359.1171 94.79521 347.5034
3.232036 359.1432 94.89883 347.4805
3.242614 359.0753 94.98344 347.4961
3.254837 359.1017 95.07894 347.4029
3.265764 359.1075 95.10794 347.4259
3.276917 359.0894 95.12379 347.4803
3.287817 359.1403 95.2048 347.5578
3.298666 359.1996 95.26491 347.6311
3.309902 359.2617 95.29547 347.6409
3.320977 359.2902 95.34052 347.613
3.331871 359.354 95.41297 347.5899
3.344225 359.3695 95.4628 347.5126
3.355036 359.3605 95.43797 347.5344
3.36614 359.4346 95.48615 347.4655
3.376806 359.4142 95.47597 347.4485
3.387892 359.3283 95.38496 347.395
3.398758 359.2404 95.2226 347.3605
3.410229 359.0982 95.01223 347.3618
3.42085 359.1593 94.89643 347.4377
3.432552 359.2441 94.81211 347.5233
3.442749 359.2332 94.71974 347.6216
3.45397 359.2234 94.57509 347.6622
3.464817 359.2115 94.41167 347.656
3.477163 359.1191 94.20824 347.5875
3.487675 358.9639 94.08171 347.5701
3.498972 358.8802 93.93657 347.6358
3.509758 358.8135 93.83265 347.7225
3.520975 358.7344 93.71518 347.7565
3.531919 358.6357 93.59103 347.779
3.542969 358.5325 93.44871 347.788
3.554892 358.4725 93.32918 347.7727
3.565524 358.423 93.23324 347.7598
3.576553 358.4116 93.11597 347.7715
3.588203 358.3777 93.0321 347.7496
3.598591 358.3555 92.95052 347.6894
3.609778 358.3144 92.84779 347.6093
3.620582 358.3114 92.77105 347.5096
3.632429 358.2976 92.69471 347.3948
3.643785 358.2928 92.62679 347.3089
3.654343 358.3477 92.55807 347.2082
3.665155 358.439 92.47112 347.1334
3.676643 358.5143 92.38076 347.0453
3.687438 358.5692 92.33276 346.957
3.698341 358.6497 92.34906 346.8761
3.710614 358.7613 92.40198 346.8171
3.721486 358.8699 92.44229 346.7624
3.732357 358.9598 92.48407 346.7167
3.743337 359.0032 92.53601 346.6509
3.754231 359.0818 92.62508 346.5529
3.765177 359.1457 92.71064 346.4591
3.775911 359.2286 92.74138 346.3755
3.788708 359.2156 92.7524 346.2589
3.800038 359.2033 92.77737 346.1888
3.810423 359.2835 92.79572 346.1453
3.82191 359.3795 92.86501 346.1339
3.833456 359.4384 92.92645 346.1519
3.844417 359.4743 92.91988 346.1707
3.855059 359.5201 92.92922 346.1782
3.866216 359.5304 92.94597 346.1559
3.877107 359.542 92.95043 346.1144
3.888169 359.5129 93.03542 346.0438
3.899177 359.504 93.12676 345.9757
3.910125 359.538 93.22756 345.8896
3.920905 359.5843 93.29768 345.8237
3.931756 359.647 93.3317 345.7402
3.942654 359.6957 93.35635 345.6605
3.954645 359.6867 93.4094 345.5293
3.966074 359.661 93.46947 345.4548
3.97665 359.7223 93.52366 345.4782
3.987376 359.8548 93.58674 345.5357
3.998824 359.952 93.59911 345.608
4.00947 359.985 93.55903 345.6465
4.020837 359.9583 93.51481 345.6077
4.032468 359.9361 93.5252 345.5513
4.043864 0.01339016 93.5671 345.5159
4.055058 0.06218547 93.63687 345.4778
4.065449 0.1397129 93.68553 345.4402
4.076621 0.2077343 93.69378 345.4039
4.087306 0.2880986 93.69754 345.4036
4.098264 0.3632545 93.73702 345.4189
4.11073 0.440277 93.85126 345.4612
4.12163 0.4604848 93.98066 345.4737
4.132751 0.4514021 94.11272 345.5121
4.143041 0.454182 94.18258 345.5325
4.15432 0.4630876 94.27184 345.532
4.165172 0.5338634 94.34647 345.5282
4.176609 0.635137 94.42673 345.4958
4.186839 0.713263 94.50312 345.4611
4.199073 0.7935081 94.57657 345.3914
4.210493 0.8531512 94.61839 345.3384
4.220929 0.9089954 94.68918 345.2984
4.231875 0.9597035 94.71043 345.2718
4.242942 0.9789132 94.74218 345.246
4.254257 0.9344766 94.79852 345.1996
4.265001 0.8956331 94.84742 345.1505
4.276464 0.837747 94.88071 345.1211
4.287244 0.7818214 94.89294 345.0598
4.299171 0.8095615 94.87363 345.062
4.310318 0.8203636 94.87423 345.0388
4.32128 0.8702875 94.87558 345.0507
4.332449 0.898 94.87099 345.0522
4.352996 0.9269834 94.87316 345.0235
4.360103 0.901685 94.87721 344.9556
4.367811 0.7997989 94.84023 344.8581
4.377751 0.6912336 94.80075 344.7762
4.389129 0.5589361 94.82092 344.719
4.414351 0.4377613 94.86627 344.7062
4.421541 0.3134022 94.99081 344.6844
4.432477 0.2521381 95.00641 344.7018
4.443254 0.1992046 95.06574 344.7738
4.453847 0.1272081 95.12133 344.9066
4.464917 359.9939 95.19434 345.0742
4.476278 359.8315 95.24751 345.2822
4.487901 359.7312 95.27937 345.5043
4.498907 359.4734 95.03098 345.7327
4.510201 358.9457 94.43015 345.7207
4.520902 358.4621 93.6623 345.6954
4.531735 357.7786 93.21322 345.4394
4.542643 357.1946 92.92136 345.3614
4.553834 356.8383 92.92854 345.3957
4.565619 356.868 93.30472 345.7598
4.576648 357.4709 93.97884 346.3531
4.587926 357.8384 94.40381 346.8477
4.599022 358.0566 94.66019 347.2937
4.609487 358.2987 94.86507 347.7852
4.620751 358.4934 95.07557 348.13
4.631811 358.5094 95.27458 348.4405
4.643648 358.1324 95.48584 348.7293
4.654711 357.5256 95.5432 348.9254
4.665889 357.0562 95.48766 349.194
4.676857 356.7733 95.41346 349.4651
4.687672 356.464 95.36811 349.6444
4.698302 356.2954 95.22998 349.9023
4.709456 356.0997 94.91563 350.1125
4.721568 356.0642 94.53318 350.2214
4.732543 355.9253 94.19092 350.303
4.743349 355.6128 93.96898 350.0839
4.754727 355.2711 93.72058 349.9053
4.765466 354.8622 93.3975 349.6512
4.776689 354.4161 92.90052 349.5437
4.787178 353.9217 92.22765 349.3642
4.798559 353.4679 91.90713 349.4093
4.810557 353.272 92.09825 349.7325
4.821942 353.2319 92.58616 350.3322
4.832727 353.4284 92.90239 350.9107
4.843787 353.7289 92.91572 351.459
4.854531 353.6947 92.70408 351.8066
4.86568 353.6017 92.32618 351.9821
4.876822 353.4741 92.02646 351.951
4.887669 353.5054 92.01262 351.6375
4.898226 353.3262 92.03888 351.4042
4.90934 353.181 91.99303 351.1625
4.921451 353.1193 91.77401 350.9945
4.932683 353.0984 91.80103 350.7805
4.944935 353.1472 91.65907 350.7248
4.95659 352.9113 91.43158 350.5625
4.968063 352.7599 91.16978 350.4486
4.980406 352.6916 90.99168 350.3469
4.992446 352.6042 90.94459 350.2106
5.00441 352.4202 90.90572 349.9363
5.017062 352.2549 90.81065 349.5375
5.029779 352.0084 90.62304 349.1445
5.04141 351.7349 90.40252 348.7296
5.074744 351.4747 90.26485 348.4357
5.078911 351.297 90.13725 348.2513
5.082822 350.7609 89.63342 347.5718
5.093881 350.5898 89.46248 347.397
5.105575 350.5328 89.23934 347.2948
5.116805 350.4482 88.97341 347.2158
5.12773 350.3853 88.66997 347.2066
5.138348 350.3481 88.54489 347.1933
5.150044 350.3486 88.43997 347.2444
5.160373 350.1971 88.30754 347.2484
5.171437 350.0931 88.21384 347.2585
5.183735 350.0396 88.03809 347.188
5.194849 349.9821 87.89217 347.0471
5.205609 349.862 87.73124 346.8776
5.217105 349.6956 87.52671 346.7431
5.227805 349.6608 87.38134 346.6246
5.238728 349.6819 87.30544 346.541
5.250302 349.695 87.31113 346.423
5.260554 349.7228 87.30426 346.3245
5.271448 349.6779 87.2146 346.2207
5.283163 349.4794 87.03541 346.139
5.294617 349.2513 86.92648 346.0452
5.30523 349.0865 86.93971 345.9546
5.316774 349.0396 86.97979 345.8699
5.326887 349.1231 86.96847 345.8301
5.338385 349.1365 86.90146 345.7391
5.3501 349.2435 86.81469 345.6347
5.361035 349.3452 86.80556 345.4863
5.371845 349.5129 86.82459 345.3264
5.383345 349.6624 86.95158 345.1172
5.394088 349.7357 87.02924 344.9499
5.405372 349.694 87.01471 344.8076
5.416744 349.6219 87.06128 344.6961
5.428125 349.7183 87.10391 344.6916
5.438663 350.0421 87.17741 344.7559
5.450299 351.3382 87.6633 345.2215
5.460546 351.9471 87.1926 345.8156
5.47163 350.9379 86.70335 345.7568
5.483172 350.3707 86.77705 345.0963
5.49382 349.5464 86.94102 344.5902
5.505055 350.0543 87.52399 344.4301
5.517194 351.4979 88.61597 344.227
5.528022 352.7011 89.10258 344.3093
5.538305 353.1816 89.52511 344.4087
5.550081 352.9428 89.68578 344.4773
5.56043 352.3605 89.31994 344.9351
5.571723 351.9102 89.03053 345.385
5.583366 351.9694 88.95368 345.8046
5.594303 352.1267 89.11332 346.1907
5.605518 352.19 89.06436 346.2855
5.616628 352.0401 88.84505 346.2392
5.627156 351.8368 88.7409 346.2115
5.63805 351.596 88.73682 346.1941
5.6499 351.4677 88.9241 346.2513
5.660268 351.5492 89.20636 346.3749
5.672063 351.6805 89.3056 346.5182
5.68399 351.6812 89.15926 346.606
5.694107 351.6185 88.92029 346.657
5.705367 351.5237 88.7541 346.6923
5.71657 351.3934 88.54295 346.7668
5.727255 351.2595 88.35491 346.8396
5.737822 351.1466 88.251 346.8773
5.750402 351.1518 88.19391 346.9135
5.761199 351.1625 88.10251 346.9015
5.772233 351.1316 87.98697 346.8364
5.783347 351.0656 87.85833 346.7154
5.793958 351.0272 87.78092 346.6342
5.80719 351.0454 87.73817 346.6133
5.816831 351.0704 87.71233 346.6488
5.828068 351.0836 87.62508 346.7255
5.838835 351.0556 87.49473 346.8336
5.850288 351.0208 87.38844 346.9542
5.861126 351.0436 87.27894 347.0785
5.871779 351.1153 87.24249 347.2719
5.884782 351.151 87.19988 347.501
5.894792 351.1224 87.12039 347.6643
5.906891 351.1399 87.11261 347.7935
5.917965 351.1345 87.09953 347.9369
5.928935 351.1878 87.06558 348.0979
5.939761 351.2749 87.06882 348.259
5.950916 351.3612 87.12946 348.3686
5.961545 351.3515 87.21756 348.4032
5.972607 351.2533 87.31964 348.3635
5.984725 351.0983 87.47383 348.3181
5.99574 351.0288 87.58275 348.364
6.006385 351.0984 87.6506 348.5163
6.01772 351.1815 87.76271 348.6795
6.028372 351.225 87.85486 348.7803
6.039546 351.237 87.93864 348.7873
6.050562 351.2706 88.03336 348.6979
6.062351 351.2803 88.1933 348.4838
6.073016 351.1942 88.37946 348.1571
6.084052 351.0156 88.58395 347.7638
6.094923 350.8017 88.85107 347.4376
6.105954 350.7724 89.03721 347.3589
6.117177 351.0073 89.23284 347.4248
6.128036 351.3049 89.30518 347.4872
6.139802 351.4953 89.24544 347.5474
6.150816 351.492 89.18568 347.49
6.161841 351.4347 89.19648 347.3549
6.172767 351.3302 89.25445 347.2225
6.184252 351.2343 89.26686 347.0357
6.217586 351.118 89.36172 346.8068
6.221184 351.0785 89.51922 346.6296
6.22454 350.5838 90.16759 345.7433
6.236573 350.5139 90.28236 345.5389
6.247258 350.4682 90.35432 345.3793
6.258193 350.3889 90.35506 345.2209
6.269145 350.3106 90.29185 345.0347
6.280277 350.2287 90.2413 344.8942
6.306547 350.1106 90.15148 344.8097
6.313942 349.811 89.88412 344.7154
6.325016 349.6909 89.75083 344.6776
6.335936 349.5623 89.55441 344.6284
6.346872 349.4585 89.30265 344.6146
6.358276 349.3433 89.03222 344.6289
6.368954 349.2417 88.73287 344.6873
6.380286 349.1348 88.43014 344.7433
6.393152 348.9053 87.99671 344.8181
6.403205 348.7019 87.5609 344.9119
6.414155 348.4959 87.07715 344.995
6.427371 348.2898 86.67592 345.0953
6.437482 348.2085 86.23769 345.098
6.470816 347.9484 85.90443 344.9199
6.47461 347.7336 85.63195 344.6888
6.478483 346.368 83.70054 342.3923
6.487927 346.2184 83.41302 342.0663
6.498943 346.1617 83.15302 341.7267
6.509778 346.0941 82.93732 341.4017
6.520753 345.9748 82.71207 341.0459
6.532012 345.823 82.45213 340.6382
6.542836 345.7084 82.28487 340.0904
6.553619 345.7464 82.16039 339.5372
6.564943 345.9426 82.05753 339.0404
6.576354 346.0596 81.98483 338.5391
6.587415 346.1408 82.00722 338.0907
6.598393 346.1788 82.07413 337.6631
6.609413 346.1983 82.08574 337.2413
6.620313 346.183 82.05435 336.8314
6.631756 346.1601 82.09749 336.4454
6.642229 346.1067 82.12995 336.0756
6.65416 346.097 82.21172 335.6322
6.665119 346.1298 82.3056 335.2755
6.676134 346.2672 82.30804 334.9092
6.687259 346.3187 82.3171 334.5369
6.698477 346.2802 82.42639 334.1487
6.709122 346.2338 82.5952 333.7709
6.720141 346.2361 82.7575 333.3917
6.732571 346.1479 82.87651 332.9732
6.743926 346.0896 82.96982 332.6338
6.754871 346.0385 83.07833 332.2119
6.766532 346.0698 83.18205 331.9842
6.778372 346.1458 83.2728 331.795
6.790463 346.2165 83.38374 331.5482
6.803499 346.286 83.5023 331.2092
6.815587 346.331 83.6621 330.8153
6.827762 346.4098 83.79958 330.3546
6.83912 346.4803 83.86868 329.9568
6.850012 346.5258 83.93839 329.6237
6.860959 346.5392 83.95636 329.3794
6.871876 346.5751 83.99723 329.1655
6.883807 346.5874 84.0701 328.9221
6.894739 346.55 84.18885 328.6862
6.905723 346.5266 84.29696 328.4338
6.91669 346.5468 84.39513 328.1071
6.927599 346.601 84.51108 327.7607
6.938504 346.6975 84.6479 327.3925
6.950509 346.8403 84.78334 326.9906
6.961578 346.9787 84.89859 326.6002
6.972824 347.1636 84.96123 326.2075
6.983619 347.2996 85.03451 325.8282
6.994511 347.3535 85.14686 325.4391
7.005395 347.397 85.24423 325.1126
7.016519 347.4143 85.35562 324.8163
7.027699 347.4731 85.40256 324.5789
7.038983 347.5064 85.45845 324.3972
7.049807 347.5232 85.47102 324.2404
7.060642 347.5755 85.50764 324.1
7.072735 347.6497 85.58915 323.9467
7.08375 347.7254 85.73392 323.7941
7.095357 347.7813 85.91232 323.6024
7.105735 347.7697 86.08368 323.4203
7.116658 347.7451 86.23609 323.2409
7.127489 347.6859 86.38415 323.1331
7.13869 347.6449 86.5163 323.0797
7.150923 347.5463 86.65587 323.1226
7.161333 347.3927 86.79155 323.1996
7.172598 347.1806 86.94139 323.3936
7.18345 346.9802 87.04871 323.656
7.194439 346.7768 87.21139 323.8728
7.227773 346.595 87.40121 324.0934
7.231121 343.8297 91.82729 324.7386
7.241962 343.9649 91.90008 324.529
7.252855 344.111 92.01827 324.3071
7.263714 344.1939 92.15782 324.1123
7.274955 344.1686 92.3457 323.9206
7.285614 344.1313 92.41482 323.7444
7.296716 343.9836 92.44327 323.601
7.30758 343.7963 92.62057 323.4537
7.318832 343.66 92.86191 323.2827
7.330597 343.4609 93.08997 323.1167
7.341614 343.3216 93.3032 322.942
7.352575 343.2827 93.45265 322.722
7.363482 343.2775 93.6584 322.4185
7.374608 343.2269 93.92544 322.0544
7.3866 343.1291 94.20267 321.5724
7.397676 343.083 94.37704 321.1212
7.408643 343.0317 94.59241 320.7353
7.41965 343.0826 94.78218 320.2987
7.430651 343.1727 95.04613 319.8075
7.441533 343.3384 95.3474 319.2811
7.452332 343.5438 95.65427 318.7622
7.463403 343.7161 95.89557 318.1968
7.474681 343.7905 96.09101 317.6658
7.486529 344.0162 96.32647 317.0612
7.497483 344.3696 96.46653 316.5541
7.50803 344.659 96.67902 316.0513
7.519094 345.0065 96.98557 315.5153
7.530104 345.231 97.2422 315.0225
7.541149 345.5417 97.4893 314.5649
7.552397 345.8962 97.71484 314.1515
7.564047 346.3046 97.91196 313.7283
7.574888 346.6906 98.04605 313.3781
7.58594 347.0497 98.14196 313.0582
7.59689 347.4169 98.32021 312.7887
7.607959 347.702 98.4408 312.5259
7.618726 348.0108 98.55613 312.2208
7.630755 348.5124 98.53994 312.0595
7.642681 349.1139 98.62013 311.9158
7.654917 349.7724 98.81582 311.6818
7.666577 350.293 99.26087 311.4334
7.67858 350.6743 99.75593 311.2643
7.690614 351.0526 100.1473 311.3165
7.70273 351.4435 100.4214 311.5924
7.714427 351.7967 100.5472 312.0351
7.726433 351.9966 100.656 312.4677
7.73747 352.1848 100.8875 312.7572
7.748507 352.444 101.1801 312.9928
7.76054 352.8388 101.5281 313.2131
7.771481 353.1476 101.8406 313.389
7.782529 353.2563 102.1838 313.585
7.793448 353.2036 102.4802 313.8509
7.804583 353.1348 102.6934 314.1628
7.815374 353.0508 102.8173 314.6149
7.826359 353.0916 102.8515 315.0763
7.837375 353.1047 102.8334 315.5776
7.848253 353.1452 102.8637 315.9457
7.860447 353.1821 102.9105 316.1882
7.871087 353.1724 103.0161 316.3049
7.882028 353.2064 103.1368 316.2853
7.892916 353.3323 103.3068 316.2946
7.90414 353.4971 103.4307 316.2853
7.914818 353.5698 103.5141 316.3111
7.926915 353.6118 103.5025 316.3372
7.937899 353.6636 103.4972 316.3635
7.948774 353.7862 103.5454 316.3868
7.959798 353.9495 103.696 316.36
7.970996 354.0994 103.9611 316.2649
7.981816 354.1815 104.1978 316.2711
7.992738 354.17 104.3814 316.3265
8.004915 354.1473 104.4015 316.5595
8.01597 354.1877 104.5166 316.7605
8.026729 354.228 104.6405 317.0005
8.037898 354.2976 104.8208 317.1773
8.048553 354.3842 104.976 317.3432
8.05964 354.4977 105.1314 317.4774
8.070522 354.5847 105.2679 317.5781
8.081738 354.6637 105.4235 317.6725
8.09348 354.8477 105.5363 317.8318
8.104815 355.0352 105.6287 317.9487
8.115422 355.1254 105.7276 318.0691
8.126631 355.1884 105.7731 318.1761
8.137375 355.2173 105.7843 318.3291
8.148434 355.2309 105.7472 318.4946
8.15935 355.2273 105.7017 318.625
8.171627 355.3437 105.7398 318.695
8.182213 355.5077 105.7828 318.7354
8.19327 355.6395 105.854 318.728
8.204208 355.6747 105.9296 318.6872
8.215149 355.6913 105.9703 318.6772
8.226063 355.6946 105.9317 318.7351
8.237247 355.7087 105.8816 318.8446
8.249018 355.7083 105.786 318.9883
8.260175 355.7108 105.7274 319.0791
8.270973 355.6878 105.7075 319.1679
8.281969 355.6258 105.6905 319.2087
8.292944 355.5741 105.6962 319.1915
8.304645 355.5658 105.7702 319.1364
8.315473 355.5637 105.8526 319.0937
8.326629 355.5723 105.924 319.0526
8.337368 355.7072 105.9583 318.9906
8.348397 355.7182 105.9912 318.9263
8.359317 355.5896 105.9628 318.8564
8.37142 355.4908 105.8887 318.8475
8.382538 355.4728 105.7877 318.8736
8.393284 355.3891 105.7549 318.8946
8.405086 355.2782 105.77 318.8366
8.415749 355.1524 105.733 318.7957
8.426699 354.9559 105.6639 318.7938
8.43768 354.8406 105.5366 318.8523
8.448663 354.8005 105.4461 318.9145
8.45978 354.8103 105.4063 318.9826
8.470646 354.8131 105.4207 319.0082
8.482101 354.793 105.4328 318.9382
8.492529 354.6403 105.4523 318.8493
8.505398 354.4584 105.401 318.7118
8.516079 354.5849 104.5005 319.279
8.527146 354.5595 104.4287 319.2535
8.538071 354.4662 104.2645 319.2125
8.548923 354.381 104.1045 319.0975
8.560093 354.2657 103.9297 318.9333
8.571108 354.1236 103.8199 318.6223
8.582169 354.0511 103.7126 318.357
8.592967 354.0092 103.6685 318.0381
8.60395 353.9712 103.633 317.769
8.614934 353.796 103.7134 317.5707
8.626919 353.5427 103.6712 317.3096
8.639619 353.3646 103.4978 317.0984
8.650841 353.1491 103.3092 316.906
8.662847 353.0179 103.067 316.7995
8.674901 352.8124 102.8832 316.6724
8.687019 355.0783 102.5947 315.9684
8.697735 354.9008 102.4129 315.8085
8.708719 356.1783 101.7569 315.3274
8.71979 356.0623 101.6268 315.2311
8.730745 357.0672 101.4136 316.1854
8.741896 356.9087 101.2329 316.0962
8.752845 356.9445 101.3008 316.1143
8.763724 356.7494 101.0653 316.0277
8.775521 357.2001 100.0021 316.9791
8.786642 356.7519 100.0447 317.082
8.797657 356.5991 100.0707 316.9706
8.808454 357.0416 98.83353 317.6694
8.81955 356.7841 98.64246 317.5758
8.830527 357.1402 97.69971 318.1755
8.842476 356.9886 97.40292 318.0718
8.853531 356.9633 97.38262 318.0891
8.864431 356.5763 97.44689 318.0114
8.875235 357.1697 96.68425 318.5705
8.886316 356.6754 96.74302 318.6524
8.897326 356.3961 96.54719 318.7415
8.908292 355.9655 96.41448 318.7289
8.919092 355.7155 96.26749 318.7837
8.931204 358.8521 96.62901 317.7189
8.942023 358.7762 96.58443 317.5655
8.953353 359.1024 97.09457 317.0315
8.964041 358.6649 97.42641 317.2803
8.975061 358.233 97.68111 317.2936
8.98607 357.6465 97.64526 317.4678
8.997109 357.0252 97.53111 317.5108
9.008954 356.5139 97.2471 317.573
9.019847 356.5993 97.01921 317.3348
9.030799 356.1755 96.93537 316.9598
9.041881 356.2167 96.94422 316.4484
9.052906 355.6507 97.02267 316.0717
9.063885 355.6916 96.99663 315.6299
9.074765 355.2268 97.28696 315.2589
9.086896 354.7594 97.4693 314.6567
9.097721 354.0905 97.47318 314.1996
9.108927 353.2774 97.32743 313.6776
9.119533 353.1383 97.14574 313.1224
9.130621 352.4734 96.47399 312.611
9.141504 352.5981 96.18246 312.09
9.152449 352.2633 96.07105 311.6399
9.164789 351.9811 95.50495 311.1337
9.17556 351.5864 95.44801 310.7685
9.18674 350.4648 95.38806 310.4026
9.197683 350.2172 95.42674 309.9603
9.208501 349.9421 95.34495 309.4997
9.219324 350.0488 95.26674 309.2643
9.230258 349.6284 95.12257 308.8501
9.242445 349.7356 94.80025 308.2881
9.253399 349.2394 94.84042 307.7758
9.264463 348.7967 94.50122 307.4365
9.275211 348.3031 94.37031 307.2855
9.286215 347.757 94.0983 307.3786
9.29736 347.2198 94.13857 307.2914
9.308274 346.6477 94.28308 307.2802
9.320238 346.6935 94.03619 307.2141
9.331034 346.4973 94.03396 306.934
9.341954 346.6931 93.87726 306.7358
9.353071 346.5208 94.15558 306.3933
9.364038 346.4431 94.27722 306.33
9.375014 346.2127 94.4074 306.3104
9.385984 346.0189 94.32786 306.6
9.39791 345.6566 94.34319 306.7789
9.409052 345.3572 94.2784 306.9763
9.419951 344.9876 94.38284 307.0997
9.430905 344.7394 94.49749 307.2794
9.44185 344.7352 94.4245 307.5329
9.452685 344.646 94.41852 307.6347
9.46388 344.7415 94.43657 307.5686
9.474789 344.5798 94.68671 307.4431
9.486699 344.2367 94.86056 307.2809
9.497746 344.0002 94.7146 307.4664
9.508812 343.606 94.71281 307.7527
9.519467 343.3755 94.59986 308.2159
9.530674 343.1654 94.52707 308.638
9.541485 342.5804 94.79449 308.8015
9.553716 342.44 94.72487 308.9811
9.564413 342.3096 94.64252 309.0048
9.575566 342.2668 94.71135 308.811
9.586432 342.3493 94.69775 308.746
9.597459 342.295 94.72679 308.7403
9.608299 342.1091 94.7635 308.8627
9.619414 341.9821 94.6403 309.0933
9.631339 341.7292 94.54747 309.4906
9.643298 341.582 94.3057 310.0072
9.655136 341.4769 94.17336 310.4214
9.667077 341.4152 94.09509 310.7394
9.678314 341.5171 93.92387 311.1371
9.689417 341.5472 93.82237 311.5151
9.700004 341.6115 93.73999 311.9567
9.71104 341.5476 93.68684 312.3715
9.721908 341.5706 93.58496 312.7953
9.734035 341.6208 93.46584 313.1787
9.744878 341.7568 93.37112 313.521
9.756556 341.9549 93.4475 313.7771
9.766736 342.2375 93.58256 313.9896
9.777723 342.4254 93.76872 314.1018
9.788813 342.4909 93.84366 314.1273
9.799667 342.4358 93.94912 314.1416
9.811781 342.515 94.00219 314.2464
9.823219 342.6911 94.03003 314.4152
9.833983 342.907 94.00491 314.6501
9.844664 342.9898 93.84598 314.7478
9.855824 342.921 93.68046 314.8004
9.866714 342.9242 93.48444 314.7607
9.877565 342.9935 93.38116 314.6771
9.888799 343.2007 93.36349 314.5178
9.900427 343.4534 93.47593 314.2913
9.91146 343.5472 93.62996 314.0105
9.922741 343.5966 93.64297 313.7521
9.933473 343.5874 93.58686 313.5257
9.944629 343.5587 93.40009 313.4701
9.955527 343.593 93.19225 313.508
9.967377 343.7354 92.90822 313.5854
9.978418 343.8687 92.75535 313.5225
9.98983 344.0882 92.67077 313.2855
10.00043 344.3522 92.76263 312.9782
10.01184 344.6447 93.05402 312.6561
10.02365 344.9893 93.34681 312.3925
10.03403 345.1333 93.6572 312.2825
10.04508 345.1976 93.78905 312.4259
10.05564 345.2567 93.849 312.716
10.06663 345.3616 93.85963 312.8898
10.07754 345.8986 93.73921 313.034
10.08856 346.7837 93.6225 313.1801
10.1005 348.2404 93.48537 313.3996
10.11156 349.5477 93.52714 313.5639
10.12244 350.902 93.63139 313.7337
10.13361 352.0578 93.72955 313.925
10.14539 353.0187 93.55373 314.4371
10.15707 354.0879 93.1122 315.4883
10.16746 355.4154 92.50176 316.8622
10.17852 357.0467 91.8164 318.4496
10.18964 358.841 91.40356 319.7492
10.20043 0.6330809 91.36024 320.6
10.21137 2.743195 91.6391 320.9679
10.2224 5.05124 92.14974 320.8058
10.2331 6.965764 92.35103 320.7114
10.24429 8.55927 92.47169 321.0125
10.25665 10.53581 92.23373 321.9983
10.2671 12.44581 91.89066 323.3718
10.27809 14.46344 91.57501 324.6769
10.28914 16.66917 91.70439 325.5517
10.30012 18.64516 91.95425 325.9049
10.311 20.4967 92.03545 326.0255
10.32189 22.2492 91.53054 326.4484
10.33385 24.25536 90.9547 327.3759
10.34487 26.07926 90.70207 328.4711
10.35671 27.25259 91.26093 329.6891
10.36691 28.51389 91.88379 330.4286
10.37778 29.9066 92.92199 331.1422
10.38878 29.71019 96.15411 333.0002
10.39974 30.09448 98.03383 333.659
10.41182 30.63434 98.57395 335.0006
10.42329 31.08129 99.12354 336.3369
10.43366 31.56511 98.63139 337.5081
10.4446 31.9546 98.59824 338.6627
10.45566 32.14887 99.20718 339.8915
10.46657 32.38139 100.394 340.921
10.47751 32.47084 102.0701 341.5159
10.49004 31.70594 103.6798 341.6214
10.50041 30.9318 104.1762 342.0615
10.51158 30.69141 103.7989 342.6831
10.52246 30.69053 102.8773 343.6871
10.53335 30.86213 101.5438 344.8772
10.54437 30.3249 100.8924 346.1631
10.55531 29.18689 100.6187 347.4434
10.5662 28.28632 100.6021 348.2997
10.57842 27.33154 100.7628 348.8913
10.58925 26.56177 101.1839 349.4145
10.60025 25.70821 101.6611 349.7684
10.61139 25.17434 102.0372 350.1184
10.62394 25.05012 102.6673 350.5787
10.63505 24.51036 102.8943 351.1508
10.64605 24.28164 103.0608 351.7174
10.65749 24.08623 103.2591 352.441
10.66834 23.41963 103.566 353.1214
10.67898 22.31437 104.0199 353.6565
10.69065 21.082 104.7087 354.0957
10.70089 20.14843 105.1815 354.3716
10.71285 19.33222 103.8024 352.7988
10.72437 19.1159 103.6892 353.1131
10.73487 19.08335 103.5678 353.7059
10.74612 18.87265 103.3717 354.3359
10.75732 18.49907 103.3713 355.1179
10.76767 18.02646 103.5316 355.8229
10.7787 17.2194 103.59 356.5556
10.79117 16.38073 103.8694 357.2066
10.80163 16.0441 104.1325 357.5833
10.81275 15.75464 104.6336 358.5978
10.82445 15.59695 105.2455 358.9558
10.83461 15.47398 105.9042 359.4408
10.84558 15.29248 106.6473 359.8804
10.85731 15.09252 107.4436 0.2614148
10.86876 14.92574 108.2634 0.6009846
10.87967 14.73548 108.9693 0.7268315
10.8909 14.43518 109.5752 0.8755826
10.90152 14.1668 110.2286 0.9700702
10.91247 13.92372 110.7868 1.059962
10.92403 13.58095 111.4307 1.165162
10.93436 13.22667 111.9697 1.238889
10.94628 12.96294 112.4325 1.340758
10.95773 12.79356 112.6388 1.549952
10.96837 12.88922 112.8372 1.771221
10.97945 13.12784 112.9568 2.055614
10.99064 13.00362 113.115 2.352137
11.00122 12.82874 113.1789 2.555142
11.01218 12.43966 113.2843 2.700722
11.0238 11.89378 113.3886 2.744136
11.03505 11.57399 113.4758 2.789878
11.04616 11.41164 113.5073 2.952384
11.05757 11.30862 113.6261 3.155857
11.06813 11.07266 113.8278 3.301489
11.07893 10.63812 113.4578 3.313846
11.09047 10.40203 113.2534 3.549972
11.10079 10.04931 112.9155 3.851986
11.11286 9.584896 112.4723 4.27001
11.12436 9.234052 111.9725 4.528839
11.13505 8.720153 111.4831 4.791174
11.14563 8.10445 111.0781 4.963125
11.15722 7.459173 110.8523 5.060956
11.16754 6.838964 110.8531 5.078382
11.17957 6.309643 110.9009 5.152664
11.19107 6.016787 110.9388 5.251117
11.20149 5.780484 110.9427 5.296448
11.21273 5.540809 110.7555 5.336708
11.22413 5.334763 110.4415 5.361045
11.23411 5.112454 110.0478 5.383181
11.24615 4.981793 109.6079 5.325593
11.25783 4.900437 109.2961 5.257918
11.26833 4.511369 109.16 5.263913
11.27923 4.310456 109.068 5.273392
11.29098 4.155204 109.0108 5.363553
11.301 3.910131 108.7999 5.423949
11.3122 3.647295 108.499 5.535897
11.32456 3.439754 108.3634 5.687706
11.33496 3.251666 108.2722 5.81547
11.34594 2.908832 108.3003 5.907947
11.35758 2.672881 108.3201 5.922673
11.36788 2.424745 108.3404 5.844907
11.37881 2.226002 108.4425 5.76402
11.39051 2.022538 108.8133 5.745999
11.40183 1.77608 109.1179 5.722617
11.41287 1.55849 109.3169 5.679611
11.42484 1.369704 109.4805 5.64638
11.43533 1.321961 109.5664 5.64556
11.44656 1.237948 109.6388 5.75534
11.45766 1.131958 109.7035 5.911457
11.46828 1.051554 109.7149 6.040711
11.47925 0.9541283 109.7562 6.157988
11.49066 0.8183894 109.8949 6.286519
11.501 0.7481511 110.0321 6.341296
11.51242 0.7673042 110.1154 6.444171
11.52301 0.7215686 110.0001 6.538373
11.53482 0.5991052 109.758 6.627668
11.54593 0.5482591 109.6146 6.637449
11.5572 0.4716698 109.5394 6.626413
11.56763 0.4181455 109.5347 6.649019
11.57874 0.3785235 109.6285 6.650023
11.5911 0.3008625 109.7612 6.613345
11.60191 0.232242 109.8015 6.651198
11.61279 0.1673322 109.7307 6.768316
11.62492 0.1693518 109.5596 6.943096
11.63515 0.1426589 109.3531 7.108457
11.64611 0.03320625 109.0657 7.230428
11.65757 359.8672 108.8174 7.350485
11.6681 359.7788 108.7259 7.534444
11.67898 359.7213 108.6252 7.720492
11.69039 359.7928 108.5523 7.827547
11.70185 359.8573 108.5137 7.875335
11.71303 359.7943 108.486 7.918522
11.7245 359.7482 108.6365 8.092834
11.73487 359.7468 108.8334 8.110574
11.74582 359.7415 109.1046 7.887933
11.75771 359.6595 109.3624 7.55375
11.76773 359.5813 109.5795 7.154245
11.7799 359.5438 109.6847 6.827167
11.79122 359.525 109.6517 6.530926
11.80173 359.5193 109.5314 6.303573
11.81277 359.6118 109.5137 6.037828
11.82437 359.7861 109.4978 5.711676
11.83483 0.04569205 109.4895 5.235068
11.84562 0.03218279 109.626 4.915215
11.85736 359.8227 109.7556 4.593863
11.86858 359.6577 109.592 4.630496
11.87955 359.2214 109.3143 4.761654
11.89098 358.6 108.9485 4.9635
11.90141 357.8607 108.423 5.257453
11.91267 357.2923 108.0341 5.572099
11.92371 356.7002 107.5804 5.974183
11.93434 356.1552 107.1171 6.311869
11.94654 355.5082 106.6427 6.569775
11.95787 354.6859 106.3524 6.832943
11.96824 353.8656 106.0705 7.014968
11.97929 352.9565 105.7789 7.174623
11.9909 352.1872 105.549 7.295791
12.00129 351.3844 105.3571 7.357707
12.01228 350.524 105.1706 7.382573
12.02343 349.7531 105.056 7.365166
12.03523 348.791 104.9428 7.268824
12.04608 347.8935 104.8067 7.179834
12.05757 346.9506 104.7163 7.097872
12.06829 346.0055 104.6032 7.054813
12.079 345.0987 104.5448 7.04132
12.09025 344.0988 104.4867 6.977709
12.10191 342.8356 104.4185 6.818912
12.11302 341.6137 104.2129 6.651537
12.12453 340.3536 103.9653 6.510987
12.1348 338.9635 103.7005 6.464111
12.14584 337.694 103.4306 6.413239
12.15747 336.4648 103.2098 6.344093
12.16763 335.3148 103.0229 6.259523
12.17866 334.2559 102.9517 6.138634
12.19125 333.1415 102.9143 5.968234
12.20175 332.0806 102.9462 5.839433
12.21261 331.1638 102.9429 5.715755
12.22447 330.3497 102.9519 5.493956
12.23453 329.5987 102.954 5.32533
12.24551 329.0186 102.9499 5.04958
12.25649 328.4738 103.002 4.722868
12.26852 327.8976 103.0992 4.318166
12.27962 327.3141 103.1896 4.016968
12.29096 326.8172 103.2264 3.736973
12.30147 326.2872 103.2868 3.44293
12.31247 325.7702 103.3211 3.128644
12.32367 325.2676 103.3422 2.811057
12.33447 324.808 103.3828 2.516438
12.34644 324.3075 103.3417 2.288457
12.35784 323.7824 103.2929 2.116563
12.36818 323.2516 103.2466 2.032701
12.37932 322.8628 103.162 2.06456
12.39032 322.5872 102.9991 2.100086
12.40108 322.3152 102.9355 2.027462
12.41243 322.1226 102.9248 1.870562
12.42327 321.9605 102.9604 1.727411
12.43491 321.9478 102.9968 1.566789
12.44599 322.0681 103.0941 1.308577
12.45764 322.1628 103.1985 0.9884715
12.46798 322.5009 103.2686 0.6304252
12.479 323.012 103.4318 0.1795921
12.49002 323.6948 103.5491 359.7764
12.50211 324.414 103.7323 359.2487
12.51281 325.0637 103.8708 358.8632
12.52458 325.9164 104.0621 358.4265
12.53494 326.7166 104.0363 358.0445
12.54584 327.5985 104.0885 357.7329
12.55679 328.4484 104.3981 357.3266
12.56761 329.1889 104.4721 357.1116
12.57965 329.916 104.2913 357.0096
12.59122 330.558 104.2514 356.8578
12.60156 330.9996 104.0136 356.8448
12.61262 331.3195 103.7244 356.9774
12.62404 331.5464 103.3259 357.3495
12.63442 331.7841 102.9979 357.6767
12.64645 332.0455 102.6042 358.1264
12.65798 332.338 102.4169 358.4215
12.66834 332.6577 102.2208 358.6934
12.6793 332.9979 102.1255 358.8647
12.69101 333.4015 102.0583 358.9975
12.70131 333.8204 102.0674 359.04
12.71225 334.1649 102.1903 358.9908
12.72512 334.6722 102.3691 358.8395
12.73571 335.0464 102.5104 358.7201
12.74669 335.3572 102.6015 358.6331
12.75838 335.6335 102.7231 358.5351
12.7687 335.8986 102.7584 358.566
12.77959 336.0801 102.8323 358.6356
12.79106 336.2074 102.8628 358.7909
12.80161 336.3779 102.865 358.9479
12.81246 336.5636 102.868 359.0702
12.82407 336.6859 102.826 359.1353
12.83546 336.7093 102.8203 359.1413
12.84658 336.7322 102.7763 359.1801
12.85826 336.7204 102.7226 359.2788
12.86848 336.6607 102.6516 359.4135
12.87939 336.5764 102.5722 359.5197
12.89067 336.5748 102.4741 359.6501
12.90123 336.6945 102.3977 359.7364
12.9124 336.9173 102.2951 359.8228
12.92472 337.2273 102.1945 359.8522
12.93521 337.4507 102.1767 359.8386
12.94613 337.7118 102.1339 359.8376
12.9576 337.9837 102.1 359.8539
12.96815 338.2072 102.0626 359.8765
12.97926 338.44 101.9989 359.888
12.99013 338.6649 101.9446 359.8922
13.00231 338.9459 101.8843 359.8443
13.01316 339.2445 101.8621 359.7746
13.02485 339.5048 101.7692 359.739
13.0353 339.8353 101.6533 359.6917
13.04587 340.1087 101.4764 359.6518
13.05689 340.316 101.3469 359.6439
13.06791 340.6581 101.1001 359.7238
13.0801 340.9091 100.8963 359.7491
13.09158 341.1217 100.6367 359.7961
13.10173 341.3935 100.308 359.8503
13.11279 341.6511 99.95486 359.8907
13.12389 341.9098 99.54235 359.8899
13.13476 342.2055 99.14565 359.862
13.1457 342.5223 98.65624 359.8455
13.15851 342.93 98.09586 359.7679
13.16861 343.2225 97.59348 359.6468
13.17965 343.4086 96.95847 359.5046
13.19081 343.5635 96.31315 359.4356
13.20156 343.7055 95.37017 359.5366
13.21259 343.8346 94.39009 359.6205
13.22354 343.8821 93.2162 359.7343
13.23593 343.9782 91.89745 359.8822
13.24691 344.0211 90.61738 0.03459896
13.25837 344.114 89.42969 0.09428098
13.26907 344.2011 88.17035 0.09314272
13.27986 344.3941 86.89386 0.0384428
13.29158 344.6013 85.58508 359.9249
13.30173 344.783 84.19003 359.8493
13.31311 345.0408 82.69523 359.6265
13.32439 345.2091 80.86278 359.7756
13.33499 345.6041 79.10206 359.8438
13.34588 345.9487 77.23174 359.838
13.35721 346.1883 75.31351 359.5698
13.36798 346.3918 73.23764 359.4852
13.37994 346.862 71.1174 359.3113
13.39162 347.2409 69.15659 359.1667
13.40174 347.6788 67.1265 358.9664
13.41299 348.1629 65.18172 358.7126
13.42387 348.6699 63.18023 358.456
13.43538 349.1593 61.1104 358.1992
13.4462 349.661 59.07627 358.0214
13.45728 350.3797 57.01398 357.7774
13.46834 351.1678 54.92884 357.4833
13.47913 352.0396 52.80515 357.1639
13.48999 352.9247 50.72741 356.7304
13.50254 353.9168 48.33733 356.2904
13.5131 354.8075 46.18859 355.8954
13.52448 355.5029 44.01665 355.5931
13.53573 356.1639 41.69037 355.3522
13.54638 356.8197 39.49838 355.1449
13.55779 357.4795 37.38708 354.7553
13.56833 357.9973 35.23842 354.3659
13.57973 358.6051 33.07683 354.1049
13.59059 359.1452 30.93754 353.9195
13.60178 359.641 28.68377 353.8734
13.61356 0.1939673 26.30937 353.7807
13.62536 0.5104557 24.14071 353.8131
13.63599 0.7144423 21.95914 353.8015
13.64707 0.8826167 19.96252 353.7287
13.65835 1.032138 18.09085 353.3825
13.6688 1.03398 16.23486 353.1632
13.67974 1.051561 14.41902 352.9883
13.69112 1.090484 12.55003 352.9329
13.70178 1.08967 10.73173 352.9037
13.71281 1.051471 8.998231 352.8078
13.72367 0.8009278 7.378255 352.7549
13.73471 0.5651993 5.779355 352.8094
13.74564 0.2948535 4.243921 352.928
13.75664 0.05307554 2.666047 353.0701
13.7685 359.682 1.187039 352.9348
13.77982 359.2644 359.8106 352.7051
13.79057 358.955 358.4787 352.6221
13.80149 358.6602 357.0687 352.6956
13.81241 358.3606 355.5894 352.9438
13.82343 357.9737 354.0237 353.299
13.83432 357.6644 352.4213 353.5667
13.84638 357.175 350.6871 353.802
13.85743 357.258 349.3751 353.6411
13.86824 357.152 347.861 353.6965
13.87924 356.9578 346.3328 353.8306
13.89021 356.8766 344.8811 353.8597
13.90125 356.758 343.463 353.8663
13.91211 356.7489 342.1842 353.8588
13.92425 356.7437 340.7538 353.8551
13.93522 356.8362 339.4734 353.8266
13.94611 356.8775 338.2004 353.8643
13.95705 356.9771 336.987 353.8283
13.96805 357.0201 335.8475 353.8616
13.97901 357.2113 334.6466 353.9666
13.99004 357.0947 333.7566 354.0751
14.00181 357.7203 332.4928 354.0952
14.01309 358.6896 331.2873 353.9707
14.02386 359.1856 330.655 353.7799
14.03502 359.7907 330.2051 353.4041
14.04585 0.6126234 329.7797 353.0368
14.05679 1.579844 329.5753 352.6163
14.0679 2.601547 329.5646 352.1433
14.07888 3.683342 329.7998 351.6682
14.09102 4.765369 330.113 351.3325
14.10177 5.709491 330.5066 351.1685
14.1127 6.771535 330.9602 351.0624
14.12359 7.76705 331.34 350.9875
14.13451 8.807856 331.7706 350.9292
14.14568 9.830171 332.1902 350.8273
14.15652 10.73971 332.672 350.7152
14.16848 11.57307 333.312 350.6285
14.17968 12.22746 333.9746 350.7422
14.19046 12.90016 334.6814 351.0011
14.20142 13.56744 335.4378 351.3499
14.21236 14.13823 336.2149 351.6377
14.22331 14.65427 336.9999 351.889
14.23417 15.19233 337.757 352.0438
14.24638 15.68477 338.6187 352.2416
14.25723 16.12352 339.419 352.5172
14.26836 16.58171 340.2852 352.8828
14.27924 16.87455 341.2296 353.4164
14.29013 17.09253 342.1809 353.9648
14.30115 17.15478 343.0484 354.4523
14.31215 17.15197 343.8266 354.809
14.32419 16.99954 344.5919 355.0671
14.33495 17.00924 345.1835 355.3256
14.34593 17.04842 345.663 355.631
14.35715 17.05289 346.0235 355.9418
14.36781 17.09131 346.3008 356.2499
14.379 17.10184 346.5185 356.5038
14.38979 17.07632 346.7152 356.6932
14.40219 17.05843 346.9828 356.8838
14.41277 17.09395 347.2408 356.9764
14.42385 17.09767 347.5088 356.9852
14.43463 17.01029 347.8586 356.9373
14.44582 16.9253 348.1713 356.8988
14.45673 16.93352 348.3521 356.937
14.46764 16.97809 348.4834 356.9201
14.47957 17.04542 348.5177 356.8602
14.49069 17.12772 348.66 356.8294
14.50156 17.25351 348.8214 356.8218
14.51277 17.39594 349.0358 356.8319
14.52344 17.58439 349.3117 356.8947
14.53492 17.84047 349.7126 356.9467
14.5461 18.07757 350.1016 356.9572
14.55735 18.33405 350.468 356.9216
14.56784 18.63476 350.8444 356.8091
14.57882 18.9592 351.183 356.6983
14.58982 19.22099 351.5775 356.5772
14.60175 19.41904 351.9157 356.4749
14.61284 19.56813 352.2773 356.4124
14.62378 19.6847 352.5027 356.3771
14.63484 19.82784 352.7886 356.3342
14.64575 19.95469 353.0568 356.2693
14.65673 20.08249 353.3373 356.2045
14.66775 20.27881 353.6528 356.0529
14.67861 20.4598 353.9011 355.8591
14.68954 20.66083 354.2258 355.6283
14.70057 20.94364 354.3856 355.4388
14.71176 21.25339 354.5366 355.2435
14.72254 21.57516 354.6001 355.1204
14.73522 21.89272 354.6783 354.9817
14.74612 22.1556 354.7161 354.8866
14.75714 22.42213 354.7071 354.7743
14.76819 22.67262 354.6879 354.6409
14.7792 22.93384 354.7066 354.5547
14.79017 23.15143 354.7601 354.4638
14.80121 23.32609 354.7627 354.3893
14.81201 23.47064 354.7398 354.2789
14.82308 23.57056 354.6904 354.2059
14.8339 23.62921 354.6155 354.1293
14.84493 23.63091 354.5768 354.0645
14.85588 23.57409 354.5157 354.028
14.86801 23.53995 354.4067 354.0087
14.87892 23.54891 354.2891 353.9766
14.88972 23.54153 354.1892 353.9438
14.90071 23.50364 354.0898 353.9395
14.91191 23.43578 354.0096 353.9445
14.9226 23.44069 353.8567 353.9513
14.93358 23.44802 353.6716 353.9318
14.94463 23.47523 353.507 353.909
14.95664 23.52886 353.3238 353.8632
14.96756 23.52701 353.1468 353.8282
14.97851 23.50494 352.9481 353.7914
14.98944 23.49266 352.7597 353.7823
15.00052 23.48476 352.5366 353.7903
15.01144 23.4299 352.3189 353.7898
15.02279 23.34408 352.077 353.7944
15.03498 23.24834 351.8308 353.8419
15.04601 23.20004 351.5528 353.8266
15.05689 23.15539 351.2937 353.7986
15.06778 23.1027 351.0495 353.7413
15.07889 23.04791 350.7858 353.6828
15.08976 23.00631 350.5329 353.6602
15.10064 22.93677 350.2725 353.6598
15.11177 22.81843 350.0722 353.7422
15.12266 22.72989 349.9167 353.8156
15.13363 22.60629 349.78 353.8869
15.14522 22.46508 349.7133 353.9758
15.15605 22.30815 349.7307 354.0592
15.16721 22.14929 349.8311 354.1825
15.17826 21.96214 350.0182 354.3358
15.1891 21.77783 350.2175 354.492
15.20112 21.51537 350.5409 354.7283
15.21205 21.27499 350.9256 354.9759
15.22296 20.99803 351.3209 355.2
15.23394 20.65295 351.8232 355.4843
15.24545 20.27736 352.399 355.7758
15.25643 19.89794 353.0063 356.0701
15.26738 19.53135 353.6455 356.3795
15.27825 19.18607 354.3152 356.6715
15.28941 18.85493 355.0296 356.9537
15.30029 18.46294 355.7899 357.2653
15.31221 17.96919 356.7123 357.6213
15.32325 17.51248 357.6295 357.9687
15.33428 17.07568 358.5651 358.2783
15.3451 16.5914 359.6128 358.6026
15.3562 16.15469 0.6794798 358.8973
15.36709 15.68076 1.84105 359.1506
15.37826 15.18005 3.108606 359.4086
15.38897 14.6724 4.364301 359.6465
15.40104 14.04831 5.783824 359.8788
15.41194 13.37875 7.126699 0.1101588
15.42302 12.69468 8.445306 0.3819465
15.43384 12.01261 9.771671 0.682414
15.44482 11.28375 11.11252 0.936953
15.45584 10.54781 12.50344 1.206955
15.46798 9.71504 14.01543 1.481888
15.47892 8.990004 15.46017 1.754672
15.49015 8.256935 16.93507 2.015321
15.50077 7.56306 18.46156 2.269023
15.51172 6.826028 19.98462 2.437
15.52285 6.08836 21.51848 2.577421
15.53374 5.387664 23.05428 2.772822
15.54462 4.714753 24.58364 2.966045
15.5567 4.007061 26.2854 3.212477
15.56744 3.353292 27.83595 3.391593
15.57845 2.746787 29.47816 3.565809
15.58954 2.09727 31.18099 3.672307
15.60046 1.410265 32.97982 3.761031
15.61144 0.7115076 34.73509 3.78963
15.62348 359.9449 36.71621 3.814853
15.63429 359.2462 38.52949 3.857658
15.64554 358.5663 40.34446 3.922233
15.65623 357.9282 42.14398 4.0568
15.66708 357.2802 43.8968 4.127275
15.67802 356.6956 45.72232 4.260865
15.69 356.1241 47.75164 4.33265
15.70093 355.587 49.63395 4.394948
15.71219 355.0402 51.59824 4.423578
15.72296 354.5934 53.52816 4.42304
15.73396 354.1696 55.45087 4.408762
15.7449 353.7832 57.33501 4.373151
15.75582 353.4595 59.27533 4.301517
15.76774 353.0642 61.41562 4.158217
15.77885 352.6765 63.46214 3.992733
15.78981 352.233 65.52797 3.805244
15.8012 351.7635 67.61356 3.606844
15.8118 351.328 69.67963 3.421473
15.8229 350.9597 71.7629 3.233541
15.83356 350.611 73.8532 3.007235
15.84562 350.2741 76.12215 2.748899
15.85651 350.0485 78.19231 2.523263
15.86763 349.8919 80.27426 2.289458
15.8785 349.7327 82.34572 2.040671
15.88957 349.6302 84.40771 1.763738
15.90033 349.5016 86.46812 1.486255
15.91148 349.4242 88.52643 1.191023
15.92233 349.3107 90.60596 0.8860376
15.93445 349.2371 92.90918 0.6002494
15.94527 349.1714 95.01917 0.302801
15.95637 349.0591 97.07527 0.006173146
15.96732 348.9977 99.0729 359.7478
15.97825 348.9455 101.055 359.56
15.98927 348.8932 103.005 359.3937
16.00027 348.8541 104.8504 359.2986
16.01209 348.8567 106.8965 359.1525
16.0233 348.9089 108.7746 359.0233
16.03397 348.9276 110.6757 358.8644
16.04504 348.9136 112.624 358.686
16.05592 348.9227 114.5898 358.5304
16.06693 348.9639 116.4917 358.3572
16.07801 349.0445 118.463 358.1613
16.08992 349.1215 120.5969 357.9497
16.10099 349.1857 122.5431 357.7475
16.11213 349.263 124.4434 357.5559
16.12293 349.3361 126.3759 357.3683
16.13379 349.4151 128.2891 357.199
16.14483 349.4254 130.2815 357.0191
16.15582 349.4528 132.2694 356.877
16.16776 349.547 134.1447 356.7115
16.17893 349.6679 136.0474 356.5962
16.18961 349.7776 137.9671 356.5019
16.20065 349.8419 139.8874 356.3967
16.21175 350.0121 141.8454 356.3167
16.22282 350.1965 143.8066 356.2336
16.23354 350.366 145.8092 356.1668
16.24605 350.5379 148.0941 356.019
16.25705 350.7068 150.0476 355.9858
16.2683 350.8898 152.0031 355.928
16.27909 351.0832 153.9087 355.906
16.29009 351.2561 155.7903 355.8534
16.30081 351.4398 157.7451 355.8354
16.31182 351.6413 159.7418 355.8323
16.3229 351.8204 161.7899 355.8097
16.33375 352.0025 163.8887 355.7287
16.34476 352.2345 165.9514 355.6898
16.3558 352.5789 167.9349 355.647
16.36775 352.9107 170.0722 355.6159
16.37862 353.148 172.0103 355.6853
16.38978 353.3624 173.9484 355.8079
16.40071 353.5501 175.898 355.9706
16.41168 353.6769 177.713 356.2581
16.423 353.803 179.5085 356.4666
16.43352 353.862 181.1323 356.7355
16.44551 353.9071 182.864 357.0578
16.4565 353.9149 184.3905 357.373
16.46772 353.8996 185.8977 357.6757
16.47942 353.8783 187.4846 357.9211
16.49046 353.8283 188.9476 358.1179
16.5016 353.8123 190.3102 358.2675
16.51248 353.8172 191.6585 358.3965
16.52335 353.7879 192.9864 358.4883
16.53421 353.7421 194.3196 358.5688
16.54518 353.7243 195.667 358.5889
16.55626 353.6759 196.911 358.6534
16.56739 353.6791 197.9926 358.8128
16.57834 353.7456 198.9823 358.9913
16.58902 353.6844 199.9311 359.2448
16.60122 353.5715 200.9061 359.5417
16.61223 353.4372 201.7131 359.7881
16.62315 353.243 202.4707 359.988
16.63391 353.0674 203.157 0.1612614
16.64499 352.9022 203.6934 0.3067702
16.65691 352.7421 204.1837 0.4594736
16.6679 352.6193 204.5462 0.6055153
16.67893 352.4507 204.7708 0.6698633
16.68997 352.2511 204.9025 0.8165563
16.70083 352.1082 204.9278 0.9744077
16.71212 352.0186 204.7197 1.147106
16.72278 351.8443 204.5537 1.308718
16.7349 351.7355 204.1698 1.451875
16.74585 351.6816 203.6858 1.573168
16.75682 351.6655 203.086 1.659829
16.76769 351.6359 202.3224 1.753818
16.77866 351.6114 201.5168 1.835278
16.78949 351.5932 200.5821 1.954901
16.80052 351.5536 199.5501 2.036039
16.81253 351.474 198.3052 2.100878
16.8238 351.3351 197.0719 2.120251
16.83444 351.1981 195.8441 2.138618
16.84615 350.9765 194.4214 2.121355
16.85695 350.804 193.0501 2.088968
16.86802 350.6383 191.5101 2.024954
16.87886 350.5168 190.0249 1.970093
16.89003 350.4567 188.4579 1.902082
16.90082 350.4153 186.8602 1.835036
16.9119 350.4212 185.1894 1.712268
16.92293 350.4134 183.4473 1.59925
16.93372 350.4615 181.6521 1.499699
16.94567 350.5526 179.5786 1.373783
16.95685 350.6164 177.5905 1.274994
16.96772 350.6807 175.6117 1.153093
16.9788 350.7361 173.5812 1.060791
16.98968 350.7581 171.5257 0.9831548
17.00064 350.8134 169.4868 0.9103559
17.01251 350.8546 167.3259 0.8483539
17.02364 350.864 165.3889 0.7775899
17.03451 350.9154 163.5018 0.6857474
17.04575 350.9867 161.6534 0.578613
17.0566 351.1127 159.8538 0.3834447
17.06747 351.2526 157.9997 0.1950629
17.07835 351.3346 156.2858 359.9347
17.09048 351.3158 154.4285 359.6338
17.1013 351.32 152.6154 359.3351
17.1123 351.3824 150.6572 358.9013
17.12334 351.3749 148.6124 358.484
17.13445 350.5847 146.7405 358.0201
17.14516 349.1978 145.0156 357.7377
17.15638 346.9184 143.4534 357.5698
17.16857 344.3312 141.6174 357.5243
17.1791 342.4738 139.8223 357.5063
17.19004 341.2134 137.8905 357.4397
17.20137 340.6435 135.918 357.3574
17.21196 340.6003 134.0423 357.2476
17.22307 340.8328 132.1916 357.1645
17.23386 341.8564 130.5131 356.924
17.24496 342.9777 128.8132 356.7397
17.25688 344.2736 127.0631 356.7686
17.26785 345.3222 125.5614 356.7318
17.27891 345.886 124.0153 356.6207
17.2898 346.1302 122.6034 356.2724
17.30086 346.4819 121.2514 355.7896
17.31168 346.9084 120.2315 355.1931
17.32289 347.5982 119.3626 354.5564
17.3347 348.8502 118.7718 353.8157
17.3458 349.9222 117.6979 353.1902
17.35686 350.7552 116.6991 352.7866
17.36753 351.2606 115.9365 352.2364
17.37857 351.6367 115.0329 351.848
17.38953 352.7872 114.1427 351.3328
17.4005 354.0234 113.128 350.8935
17.41255 354.9363 112.2346 350.2852
17.42372 355.1218 111.5708 349.7546
17.43436 355.3171 110.9855 349.0804
17.44548 355.5492 110.339 348.5156
17.45634 356.1532 109.4966 348.045
17.46738 357.1656 108.6023 347.6543
17.47826 358.2772 107.7222 347.2305
17.49028 359.213 106.9366 346.8046
17.50119 359.9205 106.2891 346.3732
17.51247 0.450223 105.634 345.8902
17.52318 0.8776312 104.8398 345.2416
17.53414 1.13813 104.1226 344.5239
17.54519 1.375474 103.4288 343.8402
17.55619 1.509763 102.9359 343.1502
17.56814 1.612311 102.3369 342.6384
17.57924 1.735958 101.6102 342.0957
17.59 1.853131 100.6363 341.7748
17.60104 1.924273 99.52409 341.5347
17.61195 2.420824 98.2095 341.2084
17.62433 3.551785 96.51289 340.7518
17.63495 4.982998 95.01991 340.1106
17.64598 6.58857 93.82892 339.2107
17.6569 7.366168 93.10983 338.3175
17.66812 7.698018 92.9029 337.4981
17.67881 7.5127 93.31173 337.1651
17.68971 7.721867 93.74985 336.8865
17.70165 7.730646 94.24874 336.3723
17.71272 7.818359 94.43793 335.9776
17.72368 8.150039 94.40038 335.5492
17.73479 8.685168 94.24542 335.2264
17.74589 9.558622 94.2422 334.9374
17.75704 10.4633 94.37228 334.6971
17.76801 11.06632 95.05426 334.5886
17.77924 11.23641 95.93232 334.6185
17.79002 11.25899 96.80086 334.5934
17.8009 11.51555 97.52667 334.683
17.81283 12.13846 98.06515 334.8243
17.82426 12.34659 98.69638 334.7579
17.83503 12.36022 99.5482 335.1654
17.84587 13.3391 100.3564 335.843
17.85687 14.83337 100.7615 335.6477
17.86802 16.35548 100.382 335.8956
17.87884 17.45593 100.8492 336.1641
17.88978 17.66375 101.4203 336.6479
17.90179 18.09212 101.9033 336.911
17.91298 18.27509 102.6295 337.4435
17.92383 18.36634 103.7001 338.0679
17.93483 17.9663 105.0068 338.8126
17.94558 17.48132 106.1878 339.4565
17.9567 16.79559 107.3106 340.192
17.96774 16.74509 108.0467 340.9238
17.97968 17.41395 108.712 341.4139
17.99043 18.37453 108.8366 341.7225
18.00163 19.43365 108.924 341.9628
18.01252 20.18076 109.3152 342.0298
18.02359 20.58581 109.9529 342.2271
18.03438 20.79509 110.4049 342.5201
18.04559 21.03474 110.6656 342.8391
18.05682 21.42709 110.6305 343.1262
18.06804 21.40462 110.7162 343.2566
18.07888 20.9705 111.0126 343.5115
18.08986 20.55975 111.3128 343.804
18.1021 20.59322 111.7104 344.1925
18.11304 20.87038 111.6831 344.5
18.12377 21.10545 111.474 344.7654
18.13489 21.13654 111.0239 344.9096
18.14565 20.9421 110.7039 345.054
18.15681 20.65365 110.6136 345.0741
18.16752 20.3394 110.8279 345.1818
18.17969 20.03373 110.8996 345.1446
18.19057 19.8151 110.6019 345.0211
18.20156 19.44678 110.2505 344.8485
18.21246 18.72881 109.4489 344.7864
18.22343 18.25177 108.7416 344.8104
18.23433 17.94839 107.8936 345.0413
18.24538 17.89846 107.0936 345.212
18.25741 17.83739 106.2312 345.4003
18.2683 17.79032 105.413 345.4034
18.27933 17.54744 104.4403 345.1941
18.29046 17.2734 103.339 345.0436
18.30136 16.87124 102.4088 344.9369
18.31224 16.59369 101.6246 344.8105
18.32335 16.4869 100.8762 344.8354
18.33412 16.56903 99.89668 344.7099
18.34613 16.53832 98.73021 344.5536
18.35708 16.50933 97.81036 344.649
18.36815 16.76946 96.70364 344.7602
18.37907 17.31035 95.72148 344.8844
18.38999 17.90161 94.7676 345.0592
18.40103 18.38741 93.89774 345.1655
18.41216 18.69997 93.06193 345.1754
18.42396 18.89396 92.32183 345.2911
18.43484 18.92085 91.78727 345.4359
18.44597 19.18226 91.21365 345.6253
18.45686 19.64456 90.37363 345.9769
18.4679 19.87123 89.69643 346.3894
18.47871 20.0401 89.06598 346.7995
18.48976 20.37688 88.38012 347.2354
18.50175 20.88551 87.47357 347.5837
18.51263 21.21114 86.58397 347.907
18.52382 21.4345 85.78187 348.3584
18.53493 21.62036 85.04469 348.7784
18.54557 21.83329 84.39526 349.2671
18.55665 22.1147 84.00433 349.7512
18.56749 22.41106 83.7923 350.1895
18.57952 22.75598 83.82866 350.6709
18.59049 23.15285 83.85909 350.824
18.60162 23.43859 83.7282 350.8603
18.61249 23.49685 83.63577 350.8153
18.62338 23.41165 83.52693 350.8947
18.63439 23.24567 83.61784 351.0104
18.64629 23.25197 83.71403 351.1844
18.65732 23.28089 83.78054 351.3605
18.66843 23.4338 83.70488 351.4523
18.67923 23.58092 83.56261 351.5337
18.6903 23.58241 83.46127 351.7307
18.70128 23.85966 83.29047 351.9913
18.71216 24.04254 82.55112 352.2059
18.72444 24.1543 81.96852 352.1592
18.73523 23.70674 81.56017 352.0541
18.74611 23.17631 81.48923 352.0188
18.75716 22.95501 81.47281 351.9994
18.76808 22.88095 81.46513 351.9604
18.77899 22.7813 81.18134 351.6492
18.78998 22.09005 80.68198 351.4655
18.80198 21.15818 80.11611 351.6947
18.81285 20.41309 79.46221 352.2323
18.824 20.27237 78.89974 352.9452
18.83483 20.51282 78.25674 353.4358
18.84599 20.34788 77.812 353.807
18.85681 19.74588 77.55079 354.0119
18.86793 18.9819 77.3296 354.0264
18.87871 18.46429 76.99751 353.7921
18.89072 18.16079 76.68465 353.4106
18.9019 18.11186 76.56841 352.9742
18.91285 17.53645 76.48397 352.7074
18.92383 16.55945 76.52646 352.5279
18.9346 15.76346 76.55794 352.4409
18.94548 15.28931 76.40189 352.4877
18.95646 14.87334 76.17405 352.6865
18.96844 14.37577 75.93807 352.9514
18.97942 14.08075 75.85482 353.1157
18.99036 13.88614 75.89374 353.2545
19.0015 13.81695 76.16862 353.4124
19.01236 13.80359 76.43591 353.3967
19.02357 13.6357 76.67912 353.1774
19.03436 13.29891 76.85008 352.9004
19.04633 12.98329 77.02444 352.5311
19.05729 12.82021 77.06593 352.3029
19.06838 12.58407 77.09903 352.1093
19.07919 12.16954 77.12419 351.9117
19.09016 11.71764 77.14107 351.7079
19.10107 11.46918 77.10595 351.4734
19.11221 11.4344 76.88219 351.157
19.12408 11.28907 76.44424 350.9448
19.13518 10.93305 75.93816 350.9278
19.14601 10.73946 75.39961 351.0543
19.15706 10.44476 74.97178 351.3947
19.16793 10.40006 74.32735 351.7978
19.17892 10.14719 73.85279 352.1163
19.18985 9.791735 73.52668 352.324
19.20193 9.28563 73.21808 352.4621
19.2128 8.623455 72.74911 352.7276
19.22425 8.086502 72.33606 353.1094
19.23467 7.785616 72.11649 353.6967
19.24586 7.68914 72.16064 354.5022
19.25671 7.638586 72.31049 355.1751
19.26781 7.539141 72.47098 355.7003
19.27983 7.433382 72.66593 356.112
19.2906 7.425051 73.11559 356.3529
19.30152 7.535331 73.65386 356.5432
19.31255 7.742143 74.54578 356.6828
19.32353 8.267528 75.54884 356.7831
19.33446 8.749426 76.54906 356.9265
19.3456 9.18188 77.45223 357.0771
19.3575 9.54642 78.4118 357.2179
19.36845 9.621049 79.34354 357.3262
19.37967 9.64627 80.35023 357.3273
19.3904 9.756372 81.36102 357.2341
19.40139 9.87289 82.32754 357.1515
19.4124 9.94091 83.2145 356.9786
19.42326 10.05 83.84599 356.8565
19.43514 10.10131 84.49683 356.8313
19.44628 10.25728 85.12552 356.9189
19.45705 10.35815 85.64665 357.0294
19.46884 10.31912 86.01745 357.1975
19.47964 10.22837 86.21272 357.3255
19.49066 10.16389 86.43376 357.4379
19.50163 10.05337 86.69405 357.597
19.5126 10.3598 86.13831 357.5435
19.52356 10.75323 84.8624 357.5351
19.53494 10.94949 84.54249 357.5823
19.54554 11.19469 84.22807 357.3869
19.55643 11.68176 84.82344 357.4702
19.56847 12.43037 85.069 357.3604
19.5794 12.88383 85.42729 357.4228
19.59035 13.57202 86.66753 357.9471
19.60143 13.9215 86.45752 357.8122
19.61235 14.00265 86.51069 357.2771
19.62452 14.40799 87.22934 356.9357
19.63521 14.92997 88.25753 356.873
19.64622 15.48434 89.76714 357.1556
19.65713 15.96345 90.45143 357.3759
19.66818 16.03438 90.82905 357.2751
19.68029 16.51527 91.30601 356.9814
19.69143 17.15393 91.55637 356.5436
19.70214 17.41095 91.22433 356.1478
19.71323 17.61062 91.30708 356.0576
19.72393 18.24171 91.80045 356.0855
19.73496 18.94411 92.38197 356.1491
19.74599 19.4197 92.58699 356.124
19.75697 19.59703 92.60676 356.1013
19.76909 19.70787 92.59679 356.171
19.78005 20.01219 92.59007 356.2747
19.79118 20.17384 92.88392 356.3785
19.80185 20.26124 93.47649 356.4615
19.81288 20.28386 94.12547 356.5729
19.82369 20.15184 94.94993 356.8091
19.83475 19.92821 95.86987 357.1281
19.84689 19.82042 96.73909 357.4618
19.85769 19.93326 97.38706 357.8266
19.86921 20.20602 97.97617 358.1836
19.88004 20.52135 98.52571 358.4651
19.89101 20.58026 98.87616 358.5568
19.90204 20.32006 99.20569 358.5909
19.91319 19.72698 99.42088 358.6114
19.92394 19.32168 99.51685 358.526
19.93493 19.10344 99.67514 358.5013
19.9459 19.00668 100.1513 358.5639
19.95784 18.84664 100.8408 358.5467
19.96883 18.92731 101.4635 358.4781
19.97994 19.1 101.94 358.5434
19.99091 19.13167 102.2223 358.6163
20.00191 19.11239 102.2624 358.546
20.01288 19.36192 102.4112 358.5255
20.02369 19.86711 102.8677 358.636
20.03565 20.56655 103.5446 358.9056
20.04691 20.73827 103.8037 358.9142
20.05763 20.73864 103.8419 358.7589
20.06868 21.0841 103.6999 358.5112
20.07957 21.27362 103.6842 358.4272
20.09064 21.16905 103.5917 358.351
20.10148 21.25056 103.7633 358.529
20.11266 21.14933 103.9647 358.7292
20.12438 21.01268 104.1077 359.0302
20.1354 20.96605 104.2834 359.2655
20.1464 20.93305 104.5715 359.33
20.1575 20.71983 105.2495 359.3125
20.16835 20.68918 105.5986 359.4869
20.17929 20.87415 105.3549 359.4483
20.19026 20.51302 105.048 359.4272
20.20225 19.99122 104.9024 359.4951
20.21331 19.76971 105.0418 359.5864
20.2243 19.70887 105.4656 359.674
20.23509 19.65696 106.008 359.8286
20.24629 19.52144 106.47 0.05666693
20.25706 19.15044 106.7263 0.1522172
20.26812 18.78645 106.717 0.2075466
20.28006 18.50613 106.7199 0.2723382
20.29131 18.25577 106.9724 0.3499705
20.30219 17.95202 107.0262 0.327509
20.31312 17.83454 106.7524 0.1157496
20.32385 17.67949 106.531 359.9811
20.33487 17.57398 106.5964 0.007923123
20.3458 17.69717 106.6691 0.07341274
20.35784 17.71444 106.7938 0.1635427
20.36886 17.60181 106.9085 0.1780701
20.37989 17.6189 106.7951 0.0735134
20.39077 17.73891 106.3248 359.8699
20.40179 17.83159 105.9007 359.646
20.41282 17.92907 105.5173 359.3967
20.42374 17.96577 105.1195 359.1925
20.43563 18.03707 104.5542 358.9291
20.44681 18.33064 103.9321 358.7245
20.4576 19.0005 103.3892 358.724
20.46871 19.91524 102.8899 358.6815
20.47955 20.77311 102.3825 358.5733
20.49046 21.61248 101.7963 358.4506
20.50153 22.21807 101.3785 358.3981
20.51358 22.97258 100.8334 358.4161
20.52441 24.23124 99.91099 358.4671
20.53534 26.9008 98.3661 358.4571
20.54634 28.95484 97.69585 357.986
20.55755 30.84287 97.41268 358.2614
20.56846 31.80702 97.71209 358.9977
20.5793 28.41306 97.90685 359.586
20.59116 18.69049 98.27738 0.5955338
20.6022 16.96713 97.52013 1.120535
20.61322 18.89384 97.73752 1.240105
20.62431 18.16298 97.79487 1.16889
20.63506 16.81793 97.36406 0.9448871
20.64626 16.68693 96.55513 0.8411045
20.65697 16.37432 95.96869 0.827138
20.6682 15.87319 95.35482 1.019696
20.67999 16.33886 94.43378 1.092682
20.69101 16.73811 94.08118 1.193815
20.70182 17.30844 93.88011 1.297612
20.71289 17.53145 93.73396 1.385958
20.72388 17.87019 93.5647 1.219433
20.73499 18.46008 93.52673 0.9068441
20.74578 19.10461 93.46713 0.4988443
20.75781 19.51654 93.40881 0.07194185
20.76876 19.8049 93.34871 359.8149
20.77997 20.23083 93.50175 359.6947
20.79072 20.61282 93.8885 359.7207
20.80168 20.95886 94.12717 359.7006
20.81267 21.12958 94.38334 359.764
20.82356 20.8642 94.63217 359.8885
20.83561 20.80259 95.00851 359.982
20.84668 21.3505 95.30215 359.9189
20.85769 21.5312 95.6153 359.8349
20.86856 21.26987 95.95621 359.722
20.87936 20.74845 96.41157 359.6558
20.89049 20.37574 96.79025 359.5935
20.90135 19.86277 97.12321 359.4442
20.91343 19.42182 97.514 359.3977
20.92436 19.21466 97.79646 359.4808
20.93547 19.10747 98.17081 359.7728
20.94625 19.08948 98.50517 359.9541
20.95721 19.25115 98.81255 0.07090225
20.96832 19.55452 98.97694 0.03202636
20.97896 19.76175 99.14958 359.9051
20.991 19.8659 99.19691 359.682
21.00182 19.96861 99.18781 359.5378
21.01289 20.37737 99.20827 359.5466
21.02381 20.67627 99.34496 359.6775
21.03487 21.04293 99.53369 359.8896
21.04579 21.42736 99.76382 0.06196105
21.05781 22.07664 99.89901 0.2006913
21.06891 22.63644 99.97631 0.1885553
21.07975 22.97319 99.96988 0.00569561
21.09074 23.34706 99.77948 359.5696
21.10158 23.70443 99.55486 359.1997
21.11268 23.9458 99.22808 358.766
21.12357 24.26763 98.96295 358.2971
21.13566 24.77774 98.7762 357.8715
21.14662 25.32987 98.66024 357.5514
21.15779 25.83683 98.57481 357.298
21.16845 26.24161 98.58223 357.0593
21.18036 26.71125 98.59071 356.7511
21.1913 27.17455 98.43952 356.3294
21.20236 27.51035 97.89072 355.5603
21.21325 27.86144 97.6533 354.9251
21.22441 28.15326 97.54412 354.4527
21.23524 28.23428 97.55779 354.1814
21.24652 28.26033 97.52799 353.8456
21.25726 28.42784 97.35126 353.4689
21.26832 28.40638 97.27486 353.1008
21.27926 28.23897 97.2521 352.6417
21.29026 28.01335 97.2425 352.2867
21.30218 27.8919 97.11402 351.8706
21.31335 27.60578 96.99537 351.6126
21.32419 24.83351 98.00761 353.6809
21.3353 23.16356 96.95516 353.4036
21.34609 23.07916 97.3308 353.7746
21.35706 22.81615 97.44854 353.9391
21.36804 22.60445 97.57527 353.7917
21.38023 21.72099 97.79577 354.0802
21.39097 21.2299 97.5923 353.9779
21.40223 20.94612 96.95949 353.7372
21.41288 20.54449 96.69182 353.6353
21.42397 20.07699 97.00351 353.8397
21.43478 19.49187 96.74964 353.609
21.4458 19.29803 96.24144 353.3643
21.45787 18.90714 95.88939 353.3485
21.46899 18.35197 95.55117 353.3081
21.47995 17.98551 94.99792 353.17
21.49067 17.51574 94.57919 353.1512
21.50187 16.90329 93.91386 353.0452
21.51286 16.23635 93.33656 353.0658
21.52362 15.73473 92.63493 352.9481
21.53569 15.19775 91.83433 352.6581
21.54667 14.60659 91.13745 352.5842
21.55782 14.10408 90.47173 352.4414
21.5686 13.77953 89.7768 352.3346
21.5795 13.15787 89.09702 352.2701
21.59034 12.74068 88.34734 352.3223
21.60159 12.53806 87.72925 352.3636
21.61341 12.25622 87.27698 352.3703
21.62444 12.30065 87.12444 352.5682
21.63543 13.228 86.89479 352.6602
21.64644 13.91697 86.48666 352.679
21.65738 14.17681 86.04317 352.5476
21.66832 13.97992 85.94881 352.5443
21.68024 13.63451 85.6252 352.5526
21.69119 13.35482 85.27953 352.6114
21.70242 13.07112 85.10925 352.8129
21.71347 12.74813 84.96599 352.9135
21.72404 12.63356 84.83829 353.0624
21.73506 12.79245 84.5153 353.0746
21.74616 12.41315 84.16529 353.0606
21.75701 11.68796 83.76159 353.0073
21.76911 11.13826 83.39103 353.0623
21.78003 10.89859 82.98626 353.0764
21.79132 10.74269 82.57256 353.171
21.8021 10.33018 82.24186 353.2094
21.81285 9.910412 81.80311 353.1982
21.82397 9.546442 81.1839 353.1997
21.83472 9.045669 80.49769 353.1656
21.84685 8.760968 79.89851 353.0135
21.85771 8.414312 79.46165 352.9956
21.86892 8.128046 79.01543 352.9283
21.87981 7.713033 78.54079 352.8623
21.89085 7.245547 78.27163 352.7603
21.90178 6.87474 78.03082 352.6592
21.91257 6.402953 77.85273 352.6108
21.92463 5.762545 77.91099 352.5969
21.93569 5.582861 78.24683 352.7522
21.94654 5.663768 78.4377 352.6851
21.95755 5.455617 78.66525 352.7664
21.96843 5.223548 78.77955 352.7068
21.97948 5.242367 78.68893 352.7881
21.99059 5.378036 78.48933 352.906
22.00235 5.234113 78.4323 353.0008
22.01345 5.136296 78.28943 353.1032
22.02455 5.021642 78.0637 353.1902
22.03534 4.741152 77.89813 353.2143
22.04634 4.592519 77.64602 353.1411
22.05755 4.236938 77.31856 353.0833
22.0683 3.871126 77.15382 353.0126
22.08029 3.585989 77.14541 352.9608
22.09124 3.36566 77.14587 352.9383
22.10221 3.150317 77.0871 352.9995
22.1132 2.874104 77.12444 353.1141
22.12398 2.645111 77.19754 353.2165
22.13509 2.532917 77.16187 353.3384
22.14609 2.388525 77.0135 353.3807
22.158 2.046268 76.90246 353.4622
22.16893 1.71481 76.8894 353.4334
22.18012 1.321954 76.94515 353.4514
22.19092 0.9903314 77.02645 353.4581
22.20184 0.6189482 77.04174 353.4565
22.21295 0.2589146 76.99909 353.4248
22.22375 359.6765 76.9623 353.3332
22.23568 359.1658 76.80417 353.2068
22.24682 358.6278 76.63298 353.0858
22.25763 357.7913 76.48315 353.3282
22.26885 357.2407 76.39563 353.5507
22.27962 356.8128 76.93513 353.7034
22.29058 356.2344 76.73895 353.8322
22.30168 355.8767 76.87891 353.8947
22.31264 355.4787 76.90019 353.9957
22.32453 355.1344 76.77978 354.0652
22.33568 354.7971 76.62845 354.0402
22.3465 354.536 76.65712 353.9548
22.35758 354.3339 76.78402 353.7882
22.36841 354.0524 77.05821 353.5699
22.37953 353.7442 77.30389 353.5606
22.39085 353.7399 77.46246 353.738
22.40188 354.567 77.54388 354.3348
22.41283 354.426 77.80907 354.8689
22.42379 354.2521 78.23307 355.0741
22.43487 354.5968 78.48283 355.2538
22.44675 354.3444 78.6564 355.4157
22.45773 354.2097 78.70126 355.6009
22.46878 354.0038 78.96671 355.6289
22.47959 353.9556 79.22842 355.9039
22.49077 353.9448 79.46853 356.3452
22.50166 354.005 79.68275 356.6845
22.51253 353.9464 79.85746 356.9473
22.52454 352.9605 80.4059 357.3514
22.53552 352.8645 80.62737 357.6727
22.54653 352.7384 80.77567 358.0497
22.55739 352.5675 81.10384 358.4207
22.56838 352.1693 81.08126 358.777
22.57937 351.9275 81.32041 359.2089
22.59029 351.2158 81.70914 359.732
22.60231 350.7431 82.23641 0.495142
22.61332 350.1545 82.69534 1.417455
22.62428 349.4526 83.17773 2.453424
22.63531 348.9521 83.68075 3.154666
22.64634 351.4456 84.32703 0.794025
22.65719 350.351 84.31071 359.7532
22.66921 351.0267 83.04604 359.5922
22.6801 351.2015 83.13709 359.1175
22.69179 351.1569 83.70242 358.917
22.70251 350.5348 83.77642 0.09482016
22.71357 350.6398 83.67648 0.6411465
22.72449 350.6511 83.69559 0.2839877
22.73561 350.6893 83.46048 359.8798
22.74666 350.8178 83.07471 359.7243
22.75767 350.9696 83.0475 359.6999
22.76841 350.9153 83.12753 359.7608
22.77944 350.778 83.23019 359.9513
22.79133 350.7417 83.15331 0.07331799
22.80289 350.8287 83.17949 359.9897
22.81323 350.8773 83.195 359.8724
22.82424 350.9892 83.09199 359.8467
22.83528 350.975 83.06799 359.9078
22.84632 350.9764 83.05806 359.9501
22.85727 350.9468 83.0237 359.9724
22.86833 351.0326 82.93137 359.9512
22.88003 351.028 82.94141 359.8832
22.89111 351.0299 82.88103 359.8801
22.90205 351.061 82.8184 359.9222
22.91334 351.0503 82.81226 359.9456
22.92395 351.1277 82.76593 359.9449
22.93515 351.1184 82.76817 359.9151
22.94598 351.1822 82.70184 359.9149
22.95799 351.1762 82.71288 359.9442
22.96892 351.2264 82.65353 359.9763
22.98004 351.2245 82.65389 359.95
22.99094 351.2527 82.60704 359.9096
23.0018 351.2928 82.54839 359.9149
23.01287 351.2668 82.55952 359.9442
23.02367 351.313 82.52213 359.9856
23.03594 351.3185 82.52884 359.976
23.04666 351.3499 82.51204 359.9177
23.05773 351.3336 82.52428 359.9024
23.06886 351.3161 82.48409 359.9587
23.07966 351.3195 82.49983 359.9608
23.09052 351.3425 82.53821 359.9534
23.10148 351.3285 82.5244 359.9858
23.11364 351.332 82.50289 359.9242
23.12435 351.3458 82.5195 359.8943
23.13551 351.3314 82.50317 359.9605
23.14658 351.3261 82.50132 0.004549284
23.15758 351.3369 82.51004 359.9241
23.16839 351.3913 82.47743 359.9131
23.17944 351.3748 82.4904 359.9651
23.19053 351.4382 82.47301 359.9808
23.20247 351.456 82.4713 359.9286
23.21326 351.4549 82.46248 359.9419
23.22425 351.4554 82.46865 359.9395
23.23525 351.4583 82.48885 359.9258
23.24621 351.46 82.4624 359.9504
23.257 351.4463 82.47231 359.9577
23.2693 351.458 82.47546 359.9381
23.27998 351.459 82.47192 359.9341
23.29094 351.4491 82.46031 359.948
23.30203 351.4547 82.43814 359.9443
23.31307 351.4657 82.42475 359.9541
23.32393 351.4642 82.42268 359.9766
23.33514 351.4669 82.41929 359.9585
23.34686 351.4764 82.43384 359.9311
23.35801 351.4583 82.43153 359.9524
23.36888 351.463 82.43262 359.9803
23.37985 351.4635 82.4574 359.9706
23.39092 351.4773 82.49314 359.943
23.40191 351.4848 82.43161 359.9435
23.41292 351.4718 82.44273 359.9395
23.42483 348.7681 82.17442 359.1508
23.43577 348.7584 82.1709 359.1618
23.44675 348.1875 82.43254 358.9467
23.45767 348.1528 82.42284 358.9296
23.46882 347.8188 82.23783 358.722
23.47968 347.7959 82.20978 358.6946
23.49044 347.7943 82.20825 358.691
23.5026 347.7778 82.19277 358.6916
23.51338 347.7596 82.17849 358.6815
23.52435 347.7952 82.16822 358.6539
23.53552 347.7949 82.18147 358.6545
23.54659 347.8176 82.14325 358.6467
23.55738 347.815 82.12711 358.6537
23.56846 347.8091 82.13217 358.6535
23.58045 347.884 82.04066 358.65
23.5912 347.8816 82.05946 358.6416
23.60216 347.925 82.00226 358.6398
23.61311 347.9274 81.99559 358.6497
23.62416 347.9777 81.977 358.6502
23.6352 347.9781 81.97419 358.6404
23.6462 348.0245 81.97755 358.6498
23.65719 348.0215 81.97639 358.6683
23.66913 348.0281 81.99069 358.6586
23.67996 348.1003 81.95509 358.6598
23.69094 348.1028 81.97109 358.6626
23.70192 348.1422 81.94663 358.6645
23.71314 348.1369 81.94424 358.6741
23.72377 348.1965 81.89566 358.6563
23.73512 348.1905 81.89637 358.6804
23.74683 348.2401 81.85599 358.7004
23.75794 348.251 81.87114 358.7073
23.76884 348.2335 81.86946 358.6873
23.77975 348.2611 81.87039 358.7028
23.79064 348.2557 81.85957 358.7075
23.80167 348.3202 81.82683 358.7018
23.81308 348.3141 81.80329 358.7002
23.82357 348.345 81.77306 358.7087
23.8569 348.3489 81.77773 358.7075
23.86321 348.3823 81.72921 358.722
23.8695 348.4835 81.65588 358.7371
23.88068 348.4816 81.65541 358.7395
23.89095 348.4829 81.66293 358.7572
23.90205 348.4809 81.65871 358.7608
23.91394 348.5347 81.62049 358.7539
23.93385 0 0 0
