時間[s] x軸周り[deg] y軸周り[deg] z軸周り[deg]
0 0 0 0
0.02 0 0 0
0.07 38.32013 40.68885 13.5413
0.1092518 46.25338 30.58924 8.456594
0.1349347 46.99635 31.11008 8.155663
0.1483212 49.38906 29.61769 5.086354
0.1614124 52.12719 29.55325 4.001449
0.1742309 54.20008 30.54811 4.146086
0.1994214 55.12139 30.8208 3.987833
0.2122288 55.92437 30.81893 3.709442
0.2241912 57.39813 30.22027 2.756922
0.2371771 58.11855 29.8418 2.405977
0.2493097 58.98485 29.55553 2.283291
0.2612427 59.71645 29.63351 2.567204
0.2732793 60.22867 29.72331 2.90087
0.2864385 60.70597 29.64394 3.443627
0.3039183 60.97303 29.32476 3.542945
0.3204096 61.25166 28.7932 3.503519
0.3339307 61.755 27.31314 3.019962
0.3463863 61.90205 26.70759 2.821184
0.3602607 61.96017 26.33765 2.810365
0.3729755 62.00666 26.20981 2.948902
0.3876128 62.12415 26.09098 2.992219
0.4017144 62.05471 25.92461 2.782761
0.415677 62.00046 25.65327 2.421319
0.430045 61.95438 25.44461 2.085649
0.4447031 61.86202 25.20453 1.695641
0.4590103 61.74362 25.1118 1.371635
0.4732208 61.67268 25.11549 1.275819
0.4876445 61.51268 25.0862 1.294419
0.502125 60.79424 25.08398 1.603257
0.5148562 59.98304 25.07634 1.865229
0.527253 58.88811 24.99958 2.038987
0.5413284 57.87917 24.89783 2.232198
0.5536003 56.01821 24.79552 2.536002
0.5657611 54.79877 24.51722 2.454607
0.5780091 53.25328 23.99522 2.292218
0.5904655 51.40266 23.24951 2.054635
0.6027083 49.39936 22.3528 1.689817
0.6146894 47.31748 21.70246 1.359371
0.6262515 44.9346 21.1372 0.7971961
0.6380304 42.95982 20.67056 0.3357334
0.6506432 41.22065 19.59695 359.5645
0.6624132 36.93906 16.73204 355.9119
0.6745121 36.02094 14.93958 354.9193
0.6868881 35.61205 13.56004 355.1918
0.6992215 34.37822 12.82652 355.709
0.7108635 32.47443 12.7273 356.3977
0.7224741 30.81662 12.86636 357.4112
0.7344235 30.36721 12.60385 358.3503
0.7464337 30.26316 12.65346 359.1373
0.7579786 29.37318 12.83494 359.657
0.7701431 28.98236 13.02982 0.01135502
0.7824804 29.29918 13.62967 0.7992039
0.794264 29.64282 13.73372 1.300871
0.8062202 29.90685 12.88244 1.422654
0.8185215 31.4645 11.03075 2.195052
0.8331344 32.04642 10.66131 2.978472
0.845434 31.72669 10.94898 3.954421
0.857877 31.39939 11.453 5.076861
0.8700987 31.70808 11.97893 6.423711
0.8868675 32.4536 12.56615 7.937053
0.8987672 33.70772 12.93939 10.22149
0.9108479 35.29434 13.39821 11.85386
0.9228835 36.76763 14.09927 12.9804
0.9351523 37.39351 14.61273 13.54984
0.9480484 37.83013 14.88744 13.58645
0.9601219 38.84694 14.87044 13.17973
0.9726606 40.12399 14.61636 12.2942
0.9850086 41.34632 14.26969 10.91043
0.997233 42.73673 14.0006 9.592173
1.009692 44.60963 13.70703 7.942567
1.024235 46.06533 13.35413 6.171936
1.036494 47.28551 12.69109 3.117846
1.048623 48.13686 12.1534 1.526056
1.060539 48.58705 12.59502 0.6691512
1.072366 48.90776 13.29251 359.8805
1.084156 49.38083 13.70078 358.9547
1.095764 50.29222 14.133 358.022
1.10762 50.91291 14.16797 357.121
1.119956 51.2755 13.82722 355.8366
1.132058 51.33839 13.75578 354.9656
1.144162 52.24525 13.61575 354.0818
1.156389 53.29786 13.41452 352.3826
1.170978 52.93093 13.04964 351.3432
1.182902 52.6255 12.13895 350.0866
1.197083 52.20388 11.16737 348.9063
1.209651 51.87286 10.53509 348.0836
1.222289 51.39816 9.901259 347.318
1.234702 49.97763 8.139347 345.3285
1.247198 49.07248 6.688081 344.3792
1.259016 48.31341 6.437798 344.3792
1.271177 47.77832 6.745328 344.9399
1.282598 47.77953 6.867553 345.7432
1.294479 47.82082 7.164978 347.1502
1.307159 47.33308 8.60437 349.1898
1.319453 46.73946 10.0297 350.5076
1.331848 46.05537 11.74061 351.6107
1.34421 45.49969 13.63651 352.6864
1.356369 45.20374 16.0403 354.2643
1.368607 45.81257 16.84934 355.4464
1.380994 46.66866 16.97861 356.4874
1.39356 47.0331 16.75724 357.1024
1.406011 46.83444 15.94897 357.3785
1.418297 46.20252 15.62608 358.0121
1.43026 45.59212 15.62581 358.963
1.442532 45.1303 16.31689 0.5292987
1.454699 44.95026 17.76937 2.812597
1.466834 44.72693 19.27519 5.504549
1.479247 43.91824 21.30707 9.74427
1.493685 43.35978 22.10494 11.6687
1.506119 42.82798 22.62141 13.45021
1.518519 42.32763 23.04617 15.29968
1.530934 41.93973 23.47295 17.39522
1.542919 41.64206 24.1808 19.83749
1.55504 41.42833 24.95212 22.38344
1.567749 40.99642 26.51227 26.91515
1.579774 40.72669 27.47736 29.44267
1.591842 40.41668 28.31644 31.813
1.60427 40.09137 29.13268 34.06076
1.619777 39.85311 29.84122 36.20984
1.631646 39.62663 30.53782 38.37678
1.643267 39.53504 31.20016 40.48331
1.655557 39.44925 31.65843 42.01607
1.67176 39.2551 32.4865 44.20723
1.683322 39.17311 33.20631 45.36879
1.694942 39.06726 33.99778 46.47697
1.706701 38.99087 34.68939 47.17734
1.718639 38.87344 35.21023 47.80187
1.729949 38.8106 35.59722 48.22987
1.741715 38.7802 35.92601 48.63462
1.753954 38.82523 36.23666 49.03614
1.766092 38.79219 36.46237 49.28297
1.777708 38.68536 36.54065 49.3507
1.79681 38.64983 36.65716 49.30014
1.809684 38.63078 36.94905 49.30867
1.821651 38.64617 37.31914 49.20525
1.833048 38.75724 37.84438 49.07456
1.844905 38.89302 38.08245 48.98418
1.856692 39.12096 38.22374 48.80526
1.875053 39.3798 38.30019 48.55658
1.890032 39.60273 38.39777 48.33532
1.90342 39.79292 38.6168 48.1347
1.914944 40.03279 39.07178 47.91534
1.92669 40.20912 39.43316 47.87524
1.938895 40.45708 39.91108 47.98918
1.951233 40.71252 40.38992 48.13102
1.963289 41.07249 40.94954 48.3153
1.985494 41.41461 41.49493 48.59555
2.035494 41.76065 41.9596 48.79026
2.057932 42.51247 43.20454 49.43905
2.070566 43.74346 45.85987 50.84049
2.082635 44.01068 46.56824 51.08212
2.095102 44.13982 46.90184 51.17279
2.116714 44.21637 47.29463 51.30071
2.129481 44.25091 47.63345 51.41505
2.1418 44.30424 48.46343 51.64728
2.154065 44.30119 48.74913 51.74873
2.166514 44.32528 49.00889 51.83164
2.179122 44.34722 49.20943 51.89109
2.191417 44.38842 49.35913 51.90652
2.203907 44.38147 49.49544 51.94086
2.216331 44.42801 49.68911 52.00355
2.229167 44.47258 49.94329 52.08277
2.242066 44.61057 50.3034 52.22096
2.254633 44.71386 50.41223 52.25952
2.2771 44.8456 50.45074 52.24282
2.294028 44.95715 50.44485 52.20559
2.306381 45.12165 50.51783 52.19494
2.318542 45.12858 50.63161 52.15087
2.333418 45.07721 50.93197 52.16718
2.346232 45.01537 51.09278 52.15797
2.360482 44.96626 51.25398 52.14406
2.37285 44.87429 51.33292 52.05298
2.386031 44.75441 51.4166 51.97501
2.399031 44.56365 51.5509 51.82571
2.412364 44.43903 51.53654 51.66702
2.435124 44.33529 51.4615 51.48589
2.447918 44.24266 51.45935 51.33368
2.460797 44.08711 51.45196 51.09481
2.473285 44.02247 51.51546 51.00203
2.485829 44.05569 51.77874 50.98466
2.498443 44.1406 51.86492 50.98063
2.510738 44.26099 51.92699 50.9645
2.523632 44.38391 51.92932 50.9299
2.535686 44.52761 51.88644 50.87249
2.547858 44.62127 51.88325 50.83001
2.566505 44.70452 51.97112 50.86038
2.589774 44.80602 52.14891 50.93464
2.602403 44.95721 52.50815 51.15968
2.614968 45.13501 52.56041 51.2509
2.628207 45.226 52.49585 51.28588
2.640554 45.32417 52.29521 51.23201
2.653523 45.35744 51.98877 51.13425
2.666685 45.36041 51.87537 51.10952
2.684701 45.2637 51.74222 51.04135
2.697601 45.206 51.65996 51.00248
2.710415 45.12317 51.50171 50.94423
2.723034 45.13888 51.36559 50.8793
2.746451 45.1843 51.17244 50.7775
2.759697 45.20811 50.9003 50.5126
2.772336 45.10198 50.35783 49.91822
2.784966 44.95544 50.26051 49.64717
2.798599 44.73692 50.27474 49.2816
2.811601 44.65303 50.19581 49.06329
2.824291 44.64586 50.06965 48.86402
2.836686 44.70585 49.95484 48.68818
2.849277 44.77213 49.90162 48.58982
2.861672 44.84829 49.86494 48.51591
2.885189 44.88131 49.94622 48.50474
2.913575 44.90303 50.25362 48.62968
2.937981 44.86149 50.39755 48.7514
2.950396 44.75211 50.35991 48.90008
2.963317 44.65682 50.5387 49.19482
2.976373 44.62004 50.55956 49.30641
2.997959 44.54833 50.59177 49.40358
3.010429 44.53064 50.68001 49.50795
3.023165 44.48117 50.81799 49.65042
3.035516 44.45359 50.86311 49.63575
3.056876 44.40107 50.83878 49.57733
3.072257 44.36495 50.81977 49.50749
3.084427 44.22258 50.70693 49.20315
3.096697 44.21147 50.68963 49.1206
3.108928 44.23154 50.67292 49.02215
3.121433 44.26089 50.68635 48.93532
3.133737 44.30339 50.66807 48.8372
3.146364 44.33522 50.63731 48.71838
3.15856 44.39001 50.659 48.58598
3.170403 44.45211 50.70056 48.51143
3.182461 44.51262 50.68449 48.34029
3.195139 44.5441 50.67262 48.23812
3.217503 44.60103 50.64532 48.15361
3.229914 44.64508 50.70395 48.16346
3.242164 44.73162 50.88798 48.24697
3.255042 44.72321 50.94874 48.28898
3.266948 44.70559 51.01697 48.33473
3.279375 44.67552 51.0078 48.37681
3.291534 44.61465 50.95498 48.38477
3.303882 44.55101 50.82605 48.34116
3.315823 44.4776 50.73475 48.28826
3.328051 44.46064 50.78256 48.32898
3.34005 44.42925 50.8259 48.32349
3.352455 44.38232 50.91299 48.28543
3.373986 44.31478 50.95725 48.22001
3.386281 44.26277 50.96692 48.0896
3.398585 44.15324 50.97483 47.82979
3.410697 44.10925 50.98639 47.67254
3.427703 44.07551 50.96098 47.51072
3.440296 44.07302 51.16581 47.39742
3.452644 44.07836 51.29376 47.37611
3.465585 44.09998 51.39471 47.34472
3.477722 44.11655 51.53689 47.38661
3.489694 44.11311 51.63518 47.38279
3.501844 44.10501 51.79772 47.44934
3.514607 44.0757 51.96687 47.53953
3.537286 44.00671 52.3246 47.77135
3.549303 43.97784 52.48729 47.89537
3.561379 43.91838 52.7952 48.15059
3.573467 43.87576 52.90641 48.23538
3.585518 43.82812 53.02139 48.31443
3.597793 43.76912 53.12847 48.40366
3.609905 43.71832 53.24995 48.46977
3.621957 43.68551 53.3754 48.55257
3.634636 43.70297 53.50733 48.59223
3.646643 43.74356 53.6297 48.65033
3.658983 43.79313 53.70694 48.60795
3.671358 43.83261 53.81707 48.48897
3.693535 43.83682 53.8873 48.39914
3.705705 43.83831 54.00619 48.34448
3.719147 43.95558 54.22464 48.25142
3.731951 44.04845 54.27802 48.18147
3.744318 44.15427 54.23178 48.06726
3.757862 44.26942 54.18836 47.93766
3.77037 44.38515 54.17305 47.81991
3.782424 44.51576 54.21597 47.694
3.794661 44.61645 54.35578 47.71119
3.807724 44.68889 54.47107 47.72667
3.830412 44.72709 54.5069 47.71481
3.852395 44.78247 54.5594 47.70883
3.865329 44.80133 54.62415 47.75489
3.878011 44.74528 54.61134 47.75175
3.891008 44.7071 54.63705 47.76096
3.903898 44.65475 54.6007 47.73564
3.916187 44.60679 54.6086 47.71215
3.928847 44.54694 54.64916 47.72674
3.940702 44.54578 54.69445 47.74622
3.952714 44.54161 54.63206 47.68746
3.965489 44.53102 54.5241 47.60165
3.978019 44.5034 54.41072 47.50776
3.990276 44.49932 54.37056 47.44955
4.012094 44.54624 54.35487 47.37868
4.024239 44.59283 54.36696 47.30602
4.036249 44.7007 54.3575 47.13951
4.048325 44.76342 54.37996 47.09069
4.060424 44.80148 54.34861 46.97284
4.072883 44.83801 54.29354 46.86005
4.0903 44.85651 54.19444 46.73806
4.102607 44.90667 54.06005 46.53238
4.115112 44.92685 53.9323 46.37514
4.138171 44.89998 53.80678 46.19564
4.160912 44.86455 53.63494 46.00298
4.182877 44.69707 53.32901 45.6025
4.196441 44.50537 53.05103 45.19281
4.20917 44.3189 52.82126 44.8947
4.221354 44.27512 52.7775 44.83955
4.2344 44.28642 52.77055 44.84074
4.246941 44.27866 52.7886 44.88925
4.260159 44.24759 52.81355 44.96078
4.272692 44.21809 52.83888 45.047
4.285051 44.1684 52.92114 45.16941
4.297386 44.09268 52.96732 45.27793
4.311299 43.97987 53.06204 45.41452
4.333469 43.76231 53.21166 45.62296
4.345811 43.64736 53.31381 45.73858
4.357846 43.45777 53.47109 45.99073
4.369661 43.38038 53.5163 46.10482
4.381705 43.30742 53.54039 46.19661
4.393577 43.24393 53.58223 46.30126
4.40555 43.17731 53.58681 46.38139
4.417603 43.17324 53.65018 46.46827
4.42987 43.12307 53.69101 46.53242
4.441827 43.09042 53.68512 46.5161
4.454253 43.05096 53.74739 46.51792
4.466723 42.99973 53.84444 46.52098
4.489044 43.05456 54.16452 46.59182
4.502096 43.12829 54.30558 46.61539
4.514319 43.34918 54.52171 46.67184
4.527163 43.47462 54.63342 46.65163
4.539417 43.56892 54.7031 46.61885
4.551607 43.64598 54.781 46.5575
4.563464 43.69639 54.8268 46.44384
4.575446 43.69285 54.87499 46.33818
4.587853 43.70018 54.91927 46.22953
4.600139 43.70084 54.98539 46.0713
4.612123 43.70998 54.99698 46.02868
4.624485 43.70064 54.99944 45.96035
4.651019 43.74357 54.99448 45.94188
4.663823 43.74801 54.98229 45.91006
4.676616 43.74431 55.07857 45.97732
4.689054 43.73786 55.11558 45.99427
4.701436 43.67939 55.16294 46.00148
4.713778 43.63987 55.18211 45.99108
4.72613 43.55358 55.20634 45.95045
4.738353 43.54932 55.25304 45.92516
4.750185 43.57076 55.37134 45.9425
4.762614 43.60545 55.48456 45.93676
4.775799 43.65894 55.59632 45.93901
4.798501 43.69601 55.69745 45.86919
4.811489 43.8183 55.77303 45.68635
4.824286 43.87558 55.69895 45.33928
4.836588 43.91855 55.59468 45.11126
4.849355 43.97512 55.52761 44.93529
4.861186 44.0371 55.44469 44.71122
4.873515 44.10208 55.35468 44.48047
4.885185 44.20293 55.24892 44.25225
4.897416 44.27858 55.10268 43.99232
4.910007 44.36156 54.89155 43.65675
4.922394 44.42125 54.66738 43.3136
4.934752 44.47541 54.4737 42.96565
4.956739 44.48621 54.30641 42.63409
4.969273 44.51929 54.14045 42.2835
4.98174 44.52 53.93043 41.66253
4.993919 44.55642 53.86774 41.36296
5.005877 44.59594 53.76026 41.01665
5.018058 44.66356 53.70277 40.7104
5.030382 44.88502 53.66113 40.27011
5.042017 44.98583 53.61123 40.02104
5.055472 45.07774 53.50453 39.71466
5.067329 45.17331 53.39505 39.44646
5.080233 45.22174 53.30795 39.22905
5.09254 45.27154 53.25826 39.03175
5.114705 45.39693 53.24812 38.88626
5.127297 45.52814 53.23142 38.71053
5.139614 45.82604 53.04012 38.27197
5.151502 46.00906 52.85284 37.97557
5.164036 46.10608 52.6748 37.71703
5.175889 46.17978 52.29425 37.24524
5.188309 46.18164 52.0514 36.98394
5.201893 46.16309 51.77861 36.73437
5.21431 46.12527 51.39521 36.46642
5.226501 46.06147 50.971 36.1983
5.238688 45.92055 50.39042 35.8389
5.251129 45.78044 49.76484 35.5121
5.273659 45.46755 48.60111 34.97547
5.285857 45.27693 47.93995 34.64368
5.298917 44.98967 46.63574 33.94524
5.311128 44.88748 46.03988 33.56391
5.323761 44.74952 45.46651 33.11476
5.336237 44.65517 44.91464 32.60416
5.348728 44.57884 44.40687 32.0872
5.361292 44.54634 43.99623 31.65049
5.373641 44.52718 43.89364 31.38638
5.386034 43.98111 42.58907 30.02073
5.403124 44.43377 42.34719 29.63893
5.426104 45.00883 41.98446 28.42737
5.438735 45.73363 41.91149 27.50151
5.450817 46.08186 40.65829 25.38828
5.463175 46.86545 40.63417 24.2076
5.475491 47.61606 41.1261 23.42061
5.487316 47.68446 41.20362 23.05334
5.499357 47.80913 41.0012 22.72828
5.511583 48.04389 41.04962 22.60859
5.523691 48.31772 40.86077 22.35771
5.535677 48.43861 40.68294 22.11272
5.547605 48.66931 40.54937 22.07982
5.560894 48.94866 40.29207 21.85545
5.583507 49.31154 39.44816 21.17088
5.595892 50.35 39.58036 20.38735
5.608508 51.12693 39.58078 19.45518
5.621245 51.4509 39.5076 19.0474
5.633577 51.83789 39.39064 18.75093
5.645666 52.15206 39.00884 18.27889
5.65748 52.56758 38.4222 17.68003
5.669092 52.82492 37.91845 17.1898
5.681282 53.23272 37.74977 16.81617
5.693398 53.55872 38.11077 16.81834
5.706693 54.1474 38.58205 16.82117
5.718908 55.23642 39.26804 16.54541
5.742031 55.6753 39.12974 16.23565
5.7542 56.26683 38.42029 15.6507
5.766337 58.36533 37.88601 14.70193
5.778885 59.94527 38.92467 14.36505
5.790878 60.74115 39.26477 14.10588
5.802577 61.33966 39.04337 13.7136
5.81466 62.27863 38.76817 13.05368
5.827331 63.29853 38.376 12.17184
5.839709 64.12177 38.2267 11.66915
5.851781 65.06499 38.27156 11.59126
5.863877 66.79272 39.09004 12.15445
5.876521 67.69402 40.40594 13.25636
5.898611 68.67829 41.48257 14.03743
5.910989 69.24477 42.15575 14.35521
5.924528 70.38026 42.67168 14.29321
5.936932 70.91955 42.9244 14.23034
5.949315 71.48203 42.96605 13.88325
5.962142 72.09795 43.17733 13.70662
5.974167 72.7138 43.03575 12.97348
5.986238 72.98295 42.61169 12.24419
5.99845 73.27632 42.44498 11.80399
6.01051 73.5796 42.23213 11.30686
6.022665 73.89851 42.2338 11.0629
6.035136 74.10262 41.99214 10.60182
6.057623 74.29235 41.27913 9.897001
6.074808 74.59046 39.92984 8.586143
6.086634 75.8963 37.25029 6.160139
6.09889 76.38515 36.23304 5.188025
6.111165 76.76228 35.01125 4.020568
6.123546 76.95869 33.88599 2.900328
6.135484 77.11388 32.82287 1.677773
6.147519 77.40968 31.9924 0.6541634
6.159839 77.68153 30.94228 359.4282
6.171844 77.91966 29.24998 357.6987
6.184234 78.28363 24.18613 353.185
6.196972 78.35248 20.49502 349.9326
6.218395 78.39738 16.67835 346.5368
6.231608 78.48117 13.37039 343.613
6.244279 78.44592 8.499952 339.257
6.256219 78.19716 7.553846 338.4241
6.268297 77.93938 7.193252 338.0329
6.280995 77.5619 6.730846 337.4206
6.293577 77.0341 6.160932 336.7686
6.305897 76.32788 3.060045 334.1429
6.318055 76.17232 1.174487 332.8217
6.330471 76.16773 359.9248 331.9562
6.34291 76.28066 359.4352 331.7966
6.355396 76.39419 359.4886 332.0456
6.377498 76.39966 359.6368 332.2774
6.389392 76.22845 0.4316478 333.1129
6.401441 76.20995 1.161523 333.9658
6.413467 76.38463 2.109789 335.0127
6.426124 76.57117 2.837037 335.806
6.438201 76.78753 4.678001 337.6752
6.450005 77.27889 7.305017 340.1306
6.462561 77.44843 9.037811 341.7591
6.474529 77.43131 10.72114 343.2901
6.486874 77.3237 11.56732 344.0367
6.49961 77.14803 11.89521 344.4243
6.512133 76.93435 11.8603 344.5712
6.534458 76.85906 11.80565 344.6909
6.546934 76.74823 12.00916 345.0265
6.559144 76.3776 12.41477 345.6479
6.572353 76.12987 11.94834 345.3752
6.584727 75.68647 10.22571 344.2869
6.596765 75.44691 9.495598 343.9347
6.60878 75.31412 8.754265 343.4764
6.6215 75.31221 7.649628 342.6255
6.633845 75.24957 6.628949 341.9449
6.645791 75.16048 5.160375 340.8261
6.657985 75.05637 3.101891 339.1791
6.670596 75.02463 0.9506886 337.5549
6.692558 74.93381 358.1259 335.4076
6.706131 74.17294 353.4818 332.1682
6.718213 72.56364 350.1475 330.593
6.731355 71.83054 349.6602 330.5959
6.744588 71.09833 350.8389 332.1539
6.757326 70.56649 353.0312 334.3637
6.769822 69.95834 356.1258 336.8144
6.781922 69.0125 359.1664 339.278
6.794324 67.74191 0.3650306 340.3948
6.807076 64.99902 1.505932 341.7599
6.819207 63.32407 2.549761 342.7021
6.83213 61.66169 3.722685 343.9309
6.859576 60.19065 4.66785 345.0552
6.87178 58.75533 5.074333 345.9634
6.88371 55.88156 4.438424 348.4109
6.896438 54.72348 3.878575 348.7416
6.909008 53.39791 3.513534 349.0052
6.921622 51.96208 3.38743 349.3714
6.934042 50.77269 3.365788 349.6479
6.947107 49.91192 3.273915 349.7478
6.959043 49.21602 3.090871 349.6967
6.971042 48.78061 2.864846 349.4523
6.983512 48.2331 2.40484 348.889
7.005743 47.0174 1.447943 347.2174
7.017943 46.27317 0.9717986 346.355
7.030549 45.97995 359.0768 343.9375
7.042144 45.90628 358.0686 342.7987
7.054383 45.49527 358.2196 342.6555
7.066383 45.64222 357.4378 341.6772
7.078802 46.86954 355.8119 340.1521
7.090885 48.49356 353.6577 338.4234
7.103471 49.04314 351.7879 337.115
7.115404 48.89993 350.1521 335.6917
7.127899 49.10194 348.7059 333.8411
7.140467 48.87236 348.9521 332.3887
7.162183 48.73311 350.4927 332.5267
7.174553 49.12559 350.7256 332.0992
7.186938 49.96876 349.3384 332.0571
7.199237 49.72408 348.2202 332.3379
7.211456 49.29266 347.1134 332.4604
7.223409 48.73021 345.9896 332.655
7.23623 47.91527 345.4123 333.0592
7.248567 47.08396 344.8042 333.4019
7.261158 46.55966 342.9901 333.902
7.273938 46.5534 342.0622 334.2729
7.285626 46.85443 341.4886 334.9491
7.298352 47.28388 340.7484 335.226
7.319967 47.63973 340.202 335.7191
7.332588 47.75833 339.7689 336.2827
7.345311 48.1864 338.6915 337.3699
7.357406 48.43942 338.3738 338.2621
7.369723 48.67647 338.1142 339.2531
7.382364 49.01267 337.9238 340.4257
7.395308 49.80549 337.3891 342.6357
7.408078 50.17227 337.2033 344.1991
7.420763 50.44738 337.1401 345.856
7.433122 50.4743 337.2923 347.784
7.445094 50.32147 337.3796 349.7208
7.45748 50.29601 337.7823 351.5753
7.479002 50.4978 338.4651 353.5793
7.491633 50.84643 339.2594 355.6851
7.504881 51.31414 340.7248 359.7388
7.517459 52.01656 341.1991 2.924219
7.535172 52.58686 340.9169 4.047065
7.547643 53.18651 340.5443 4.791381
7.559456 53.5519 340.0874 5.253171
7.571476 53.78484 339.3861 5.151663
7.5838 54.30523 338.6676 4.841161
7.59608 55.02277 338.4758 4.699154
7.608232 55.75266 338.4846 4.444046
7.630952 56.21377 338.4646 4.067434
7.643682 56.45163 338.3133 3.489748
7.655911 55.81623 337.7443 2.394002
7.667922 55.46144 337.3058 1.817352
7.680638 55.02676 337.0776 1.409198
7.692747 54.40069 336.8492 1.018798
7.704766 53.81775 336.8132 0.867202
7.7166 53.15407 336.8739 0.7731184
7.729003 52.9207 337.1765 1.04075
7.741027 52.57396 337.4998 1.424206
7.752936 52.04977 337.6758 1.90165
7.765208 51.35138 337.8369 2.573885
7.787295 50.45052 337.9277 3.376014
7.800663 49.50551 338.0634 4.102083
7.812798 48.0239 338.7261 5.769393
7.82532 47.48931 339.2507 6.595144
7.837765 46.96273 339.4472 7.21394
7.850192 46.05129 339.412 7.926018
7.862622 45.53299 339.3615 8.205536
7.874802 44.86748 339.4107 8.475192
7.886548 44.11287 339.3169 8.457105
7.898911 43.34208 339.2656 8.367016
7.911178 42.80176 339.0851 8.100344
7.923512 42.40681 338.8441 7.826448
7.945906 42.03789 338.7896 7.670711
7.959369 41.91666 338.5033 7.37595
7.971322 41.30551 337.1151 6.851814
7.983354 40.89658 336.5428 6.704102
7.995531 40.27239 336.1106 6.5132
8.007739 39.77213 335.752 6.301381
8.019917 39.38169 335.442 6.076054
8.033294 39.03658 335.0818 5.903473
8.045656 38.70151 334.4835 5.726976
8.058235 38.41217 333.8921 5.567247
8.070276 38.07227 333.0155 5.462759
8.08244 37.36736 332.1793 5.48381
8.104747 35.63567 331.6651 5.244718
8.117373 35.05466 331.7473 4.923689
8.130096 35.00405 331.5403 4.848597
8.142092 35.34295 331.0507 5.037938
8.153996 35.58974 330.3217 5.336772
8.166105 35.49166 329.664 5.761654
8.178023 35.09909 329.223 6.140543
8.190291 34.64339 329.1296 6.433288
8.202971 34.02772 329.3426 6.674749
8.215254 33.44043 329.6629 6.78623
8.2281 33.48151 327.8051 5.285006
8.241027 34.46185 327.2378 4.675412
8.267431 35.20039 326.2603 4.573378
8.280542 35.50837 325.5871 4.800017
8.292684 35.10197 325.6234 5.317154
8.304632 34.86124 326.4165 5.351142
8.31674 35.13496 326.5569 5.531488
8.32913 35.5648 326.2287 5.679499
8.341468 36.36623 325.5819 5.936444
8.353464 36.96698 325.0323 6.295108
8.365502 37.45004 324.6194 6.601117
8.377692 37.70798 324.6353 6.969226
8.390624 37.80146 324.7636 7.168641
8.402905 37.85616 325.1586 7.650938
8.425303 37.77955 325.4595 8.06167
8.438042 37.93671 325.6367 8.625876
8.45032 38.39268 325.1432 8.81409
8.462951 38.43803 324.7616 8.725056
8.474649 38.2883 324.4816 8.664095
8.48656 38.08511 324.5233 8.667465
8.49938 37.77917 324.6959 8.733351
8.511958 37.48951 324.9383 8.728934
8.524619 37.26797 324.9792 8.663057
8.536465 37.15314 324.8831 8.434654
8.548735 37.17707 324.5369 8.15552
8.561449 36.9549 323.8409 7.56256
8.583474 36.87472 323.7694 7.243685
8.59605 36.93925 324.122 7.059032
8.607976 37.24881 324.877 7.023647
8.619978 37.44313 324.9074 7.091099
8.632856 37.41597 324.478 6.989257
8.644922 37.16555 323.9388 6.954123
8.657246 37.91719 322.1154 4.090301
8.669651 34.26801 321.7773 4.134385
8.681793 34.42897 322.129 2.951787
8.693547 33.97949 324.4431 2.645469
8.705894 33.85367 323.7871 2.336409
8.718119 33.25856 323.8508 2.54967
8.740805 33.68271 321.8683 2.330227
8.753886 32.68547 321.7998 2.558086
8.766088 31.18939 322.0738 2.794244
8.777752 30.85748 322.5901 2.525581
8.790017 29.73615 322.82 1.874383
8.803577 28.12003 322.5365 1.098355
8.81614 25.81151 322.0122 0.08585431
8.828904 24.03706 321.8421 359.012
8.841632 24.02849 321.8107 358.4057
8.853945 24.38742 321.789 357.7946
8.866375 24.44806 321.7711 357.4644
8.87936 24.3186 321.7849 357.2846
8.901871 24.07739 322.2837 357.6278
8.914599 23.85827 323.1078 357.9725
8.926549 22.73939 324.2598 359.2171
8.938702 21.41761 324.3552 359.7832
8.950667 19.69131 324.0511 0.6596577
8.962777 18.36812 323.7283 0.9718128
8.975224 16.50596 323.6639 1.327945
8.991755 15.24487 323.8302 1.481811
9.003524 14.80921 323.6844 1.697955
9.015863 14.23605 323.5375 2.01206
9.028385 13.87068 323.5248 2.398596
9.040895 13.83383 324.2293 2.828991
9.06254 13.39964 324.7286 2.921712
9.074961 12.90473 325.2216 2.812432
9.086898 11.82319 325.3481 2.665523
9.098958 11.31643 325.2806 2.474472
9.111099 10.84208 325.4004 2.132516
9.123303 10.29394 325.6205 1.796647
9.136224 9.670503 325.9696 1.319975
9.148327 8.71826 326.2789 0.7437437
9.160817 7.33708 326.3528 359.8568
9.173064 5.611849 326.1415 359.2075
9.184972 3.569761 326.0087 359.5357
9.197371 3.078698 326.553 359.6432
9.219285 2.557521 327.2302 359.772
9.231972 2.185891 327.9195 0.5226855
9.244221 2.558243 327.9028 2.473869
9.256412 2.129241 327.4391 2.732493
9.268442 1.621113 327.1783 3.181006
9.281067 1.119509 327.2823 3.59596
9.293087 0.6309723 327.2824 4.030204
9.305511 359.8206 327.551 4.100454
9.317835 357.2838 328.5011 3.805319
9.330488 355.5077 328.815 3.600751
9.342564 354.0834 329.1417 3.037239
9.354999 352.2532 329.4626 2.27787
9.376482 349.5938 329.9178 1.177587
9.390315 346.9435 330.3658 359.9187
9.402346 347.0469 334.4175 350.6384
9.414725 348.1344 333.907 348.6279
9.426764 357.6801 326.854 354.8532
9.439148 358.0417 325.6268 354.1295
9.451159 355.236 327.2905 355.8416
9.463575 353.0225 327.3019 356.6582
9.476093 354.1501 328.9542 356.7639
9.488097 352.7392 329.2615 358.5783
9.500564 352.9738 329.4467 0.1184476
9.51317 352.7426 329.1032 1.536138
9.53514 352.4083 328.5432 2.228832
9.547805 352.2678 328.2816 2.724951
9.559813 352.864 328.7382 0.6437098
9.572536 353.2645 328.9561 359.1368
9.585441 353.4441 328.5195 358.2398
9.59826 353.3855 328.5777 357.8491
9.610471 352.7983 328.7388 357.5675
9.622722 353.0265 328.7149 357.8968
9.635004 353.3479 328.3611 358.5035
9.64702 353.575 328.1425 359.0133
9.658889 353.2226 328.6542 359.0922
9.671604 352.9109 329.062 359.1703
9.697975 352.673 329.1671 359.2498
9.710233 352.901 328.7172 359.3365
9.722161 353.0684 328.805 358.9333
9.734549 353.1093 328.8089 358.7833
9.746846 353.015 328.7718 358.7766
9.75889 353.1271 328.7269 358.9147
9.77076 353.0599 328.7324 358.9994
9.782758 353.1022 328.7012 359.1161
9.794877 353.1063 328.7242 359.2153
9.806937 352.9722 328.8687 359.1705
9.820069 352.9202 328.8438 359.082
9.833101 353.0362 328.734 359.0205
9.856392 353.1789 328.6175 358.9933
9.869134 353.0903 328.6667 358.8233
9.881659 352.9503 328.8078 358.8154
9.893769 352.9464 328.7562 358.9667
9.906228 353.0694 328.716 359.2186
9.918108 352.9596 328.7518 359.2313
9.93012 352.9139 328.8007 359.1771
9.942345 352.8109 328.8755 359.1099
9.954888 352.9005 328.8046 359.0789
9.9671 352.9956 328.7124 359.0244
9.979061 353.0212 328.685 358.9419
9.992482 353.0033 328.7556 358.8317
10.01435 353.0005 328.7566 358.8008
10.02622 352.957 328.7661 358.8537
10.03846 353.0458 328.7311 359.0556
10.05098 353.0196 328.7334 359.1075
10.06376 352.9629 328.8205 359.0937
10.07637 352.9632 328.8256 359.1044
10.08879 352.9358 328.7679 359.1327
10.10067 352.9604 328.7524 359.1177
10.11277 353.0071 328.7689 359.0803
10.12469 353.0029 328.7678 359.0544
10.13688 353.215 328.5055 358.6115
10.1491 353.1475 328.5149 358.5827
10.17082 353.1898 328.4767 358.5813
10.18388 353.364 328.3734 358.4976
10.19602 353.3065 328.4719 358.4384
10.2078 353.284 328.4519 358.4758
10.22077 353.2809 328.4432 358.5273
10.23316 353.3261 328.4005 358.6149
10.24506 353.3406 328.3744 358.6488
10.25696 353.3176 328.4055 358.6742
10.26907 353.2788 328.4371 358.6905
10.28139 353.256 328.4233 358.7011
10.2933 353.2758 328.3875 358.6824
10.30545 353.3118 328.3298 358.644
10.328 353.3376 328.3812 358.6448
10.34054 353.3327 328.4135 358.6089
10.35252 353.3239 328.3875 358.6354
10.36518 353.3408 328.3317 358.6649
10.37704 353.3711 328.3505 358.7057
10.38884 353.3675 328.382 358.7152
10.40089 353.3035 328.3739 358.7437
10.41295 353.3175 328.3855 358.7522
10.42476 353.3228 328.3429 358.8021
10.44151 353.3499 328.3619 358.8058
10.45338 353.3614 328.3688 358.7865
10.46622 353.283 328.4122 358.7339
10.48777 353.3246 328.3924 358.7404
10.50144 353.356 328.2845 358.8083
10.51363 353.385 328.3128 358.7618
10.52541 353.367 328.3336 358.752
10.53761 353.3217 328.332 358.7716
10.54996 353.347 328.3405 358.7701
10.56192 353.3774 328.3026 358.8264
10.57465 353.3681 328.3085 358.8396
10.58694 353.3423 328.332 358.8528
10.60216 353.3111 328.3371 358.8557
10.61434 353.4292 328.2206 358.9664
10.62656 353.4662 328.2175 358.9523
10.64904 353.4618 328.215 358.9543
10.66076 353.3605 328.2415 358.7796
10.67313 353.3593 328.1635 358.7056
10.68533 353.343 328.1291 358.6187
10.69813 353.3339 328.1599 358.5939
10.7103 353.3223 328.1635 358.5357
10.72237 353.2744 328.1341 358.5258
10.73527 353.7728 327.5497 358.4302
10.74728 353.7534 327.5172 358.4302
10.75887 353.9564 327.2646 358.4101
10.77142 353.9617 327.2656 358.3929
10.78442 354.2051 327.1475 358.3086
10.80653 354.2478 327.1169 358.2856
10.8183 354.249 327.0917 358.2787
10.83127 354.5733 326.6517 358.203
10.8431 354.5757 326.6679 358.1721
10.85554 354.5627 326.6563 358.1692
10.86792 354.5681 326.6678 358.1765
10.88034 354.5743 326.6332 358.2013
10.89246 354.5533 326.6378 358.2055
10.90473 354.5815 326.6437 358.2227
10.91776 354.5342 326.5919 358.2678
10.93028 354.485 326.5883 358.2878
10.94243 354.4987 326.58 358.3139
10.96451 354.4619 326.5185 358.3192
10.9768 354.4614 326.5175 358.3056
10.98884 354.4401 326.5174 358.2892
11.00132 354.4356 326.5189 358.2783
11.0152 354.4371 326.5072 358.2577
11.0275 354.4573 326.5054 358.2359
11.03954 354.4499 326.4956 358.237
11.05175 354.4121 326.4661 358.2698
11.06388 354.4148 326.4438 358.2805
11.07578 354.4237 326.4427 358.3098
11.08753 354.398 326.4372 358.3302
11.10004 354.3955 326.4202 358.3405
11.12665 354.3792 326.4117 358.3508
11.13897 354.383 326.4113 358.3539
11.15167 354.3391 326.327 358.362
11.16378 354.3364 326.3373 358.3279
11.1755 354.3087 326.3569 358.3364
11.18771 354.3027 326.3338 358.3255
11.20054 354.3108 326.3489 358.3477
11.21258 354.3101 326.359 358.3376
11.22473 354.3038 326.3473 358.3247
11.23699 354.3207 326.3411 358.3283
11.25034 354.3067 326.3497 358.3405
11.27268 354.3125 326.317 358.3577
11.28553 354.3114 326.2988 358.3705
11.29809 354.2875 326.3225 358.3939
11.30991 354.2703 326.3191 358.3842
11.32168 354.2736 326.3208 358.371
11.33424 354.2879 326.2825 358.3871
11.34693 354.2943 326.2793 358.3622
11.35881 354.2804 326.2934 358.3461
11.37115 354.2905 326.3013 358.3332
11.38336 354.2817 326.2965 358.3229
11.39591 354.28 326.322 358.3369
11.40826 354.2855 326.3282 358.3417
11.43122 354.2903 326.3309 358.3571
11.44383 354.2695 326.3411 358.3686
11.45578 354.2684 326.3302 358.3708
11.46825 354.2645 326.3175 358.3726
11.4807 354.287 326.3274 358.3478
11.49238 354.2417 326.3192 358.3452
11.50427 354.2272 326.3217 358.3515
11.51703 354.2593 326.3062 358.3261
11.52945 354.2562 326.2775 358.3348
11.54149 354.2604 326.2951 358.3115
11.55357 354.2404 326.3125 358.3246
11.56615 354.2248 326.3061 358.2922
11.58774 354.2296 326.3156 358.2973
11.60006 354.2427 326.2965 358.3188
11.61209 354.2172 326.2751 358.3709
11.6248 354.1884 326.2777 358.3749
11.63733 354.1676 326.2454 358.3975
11.64983 354.1867 326.2306 358.3974
11.66198 354.1524 326.2704 358.4076
11.67432 354.1406 326.2494 358.3871
11.68647 354.1295 326.2411 358.3658
11.6987 354.1222 326.2683 358.359
11.71122 354.1275 326.273 358.3717
11.72384 354.1143 326.2699 358.3382
11.74659 354.0878 326.2676 358.3806
11.76136 354.0937 326.2664 358.3679
11.7737 354.0417 326.2422 358.4081
11.78604 354.0812 326.2492 358.4108
11.81382 354.0561 326.2398 358.4125
11.82641 354.0329 326.2309 358.435
11.83893 353.9792 326.261 358.4398
11.85161 354.4154 325.6697 358.3442
11.86449 354.4147 325.6474 358.3244
11.87695 354.6881 325.2762 358.2728
11.89978 354.7007 325.2741 358.2656
11.91322 354.7031 325.2774 358.2636
11.92537 354.7452 325.2479 358.2519
11.93836 354.743 325.1943 358.2726
11.95087 354.7458 325.2022 358.3003
11.96405 354.744 325.1745 358.3051
11.97657 354.7525 325.1828 358.2748
11.98888 354.7526 325.1564 358.3022
12.0013 354.7066 325.1758 358.2986
12.01382 354.7238 325.1904 358.2826
12.02725 354.7346 325.1687 358.2495
12.04978 354.7308 325.1506 358.285
12.07219 354.708 325.12 358.3025
12.08492 354.6905 325.1077 358.2916
12.09759 354.7061 325.0902 358.2808
12.10976 354.6897 325.0855 358.3073
12.12259 354.6989 325.0596 358.3137
12.13611 354.6782 325.0677 358.3282
12.14861 354.6832 325.0727 358.3154
12.16087 354.6361 325.0851 358.3215
12.1733 354.6169 325.1147 358.3677
12.18636 354.6306 325.0991 358.3659
12.21595 354.6037 325.1067 358.3687
12.23059 354.5788 325.1124 358.3446
12.24513 354.8759 324.7855 358.2346
12.25954 354.907 324.8153 358.2511
12.27491 354.8986 324.7838 358.2433
12.28949 354.8908 324.7189 358.2935
12.30513 354.8748 324.7518 358.2986
12.32022 354.8867 324.7426 358.2684
12.33467 354.8647 324.7076 358.2791
12.34814 354.8648 324.7044 358.2646
12.37803 354.874 324.6665 358.2715
12.39035 354.8727 324.6448 358.2609
12.40349 354.8617 324.6894 358.2636
12.41728 354.8416 324.6593 358.2856
12.43106 354.84 324.6539 358.3031
12.4436 354.8409 324.6337 358.2957
12.45568 354.7962 324.665 358.3233
12.46824 354.7992 324.6699 358.3246
12.4804 354.786 324.6475 358.3306
12.49261 354.7778 324.6181 358.3344
12.50499 354.7813 324.5973 358.3293
12.52771 354.7439 324.5604 358.3241
12.54085 354.7243 324.6165 358.3261
12.55313 354.729 324.6036 358.3278
12.5662 354.727 324.5785 358.3291
12.5787 354.7218 324.6324 358.3082
12.59161 354.7043 324.6165 358.3211
12.60372 354.7067 324.6328 358.2977
12.61689 354.6828 324.6479 358.3281
12.63006 354.6808 324.6461 358.3376
12.64261 354.6856 324.6451 358.3238
12.65629 354.6693 324.6352 358.3328
12.68077 354.6836 324.6404 358.332
12.69369 354.6705 324.6101 358.3047
12.70676 354.6804 324.6562 358.2978
12.7211 354.6795 324.656 358.3122
12.73407 354.6899 324.6923 358.3016
12.74804 354.68 324.6742 358.2975
12.7609 354.7115 324.7068 358.2843
12.77358 354.6904 324.7537 358.2726
12.78597 354.683 324.7354 358.2755
12.7983 354.6921 324.7615 358.2579
12.81091 354.9747 324.4822 358.1726
12.83286 354.9793 324.485 358.182
12.8462 354.9986 324.3816 358.181
12.85846 354.9748 324.3675 358.1985
12.87042 354.9515 324.3768 358.2066
12.88255 354.9332 324.3802 358.2043
12.89422 354.9146 324.4209 358.2004
12.90652 354.9185 324.3802 358.2045
12.91899 354.9155 324.3867 358.2095
12.93158 354.9283 324.3856 358.2115
12.94383 354.92 324.3909 358.2102
12.95683 354.9167 324.3545 358.2242
12.96993 354.9249 324.3593 358.2052
12.99168 354.9148 324.4015 358.2158
13.00413 354.9226 324.4044 358.1998
13.01641 354.9336 324.4271 358.1847
13.02824 354.9211 324.4246 358.2053
13.04045 354.9121 324.4146 358.1979
13.05301 354.8983 324.4221 358.1825
13.06572 354.8866 324.4249 358.187
13.07816 354.9193 324.419 358.1729
13.09051 354.9035 324.42 358.1684
13.10258 354.8869 324.3962 358.1931
13.11478 354.8921 324.3783 358.2115
13.12731 354.8671 324.3571 358.2055
13.15395 354.8834 324.3947 358.2185
13.16619 354.8696 324.3886 358.2368
13.17866 355.1023 324.1265 358.1559
13.19098 355.1269 324.1269 358.1649
13.20288 355.1237 324.0506 358.1673
13.21497 355.0828 324.0652 358.19
13.22777 355.0935 324.0478 358.1934
13.24 355.075 324.0442 358.182
13.25208 355.0749 324.008 358.2079
13.26416 355.0688 323.9981 358.2027
13.27645 355.0544 324.0066 358.2079
13.28884 355.0678 323.9864 358.2141
13.31066 355.0397 324.0361 358.212
13.3233 355.028 323.9975 358.219
13.33632 355.0319 323.9611 358.2314
13.34913 354.978 323.9972 358.2577
13.36095 354.9814 324.0187 358.2482
13.37389 354.9898 324.0481 358.2928
13.3861 355.0058 324.0355 358.2841
13.39834 354.9991 324.0226 358.2725
13.41035 354.9589 324.0536 358.3146
13.42238 354.9552 324.0471 358.2994
13.43468 354.914 324.0652 358.3251
13.44712 354.913 324.0518 358.3384
13.46928 354.8865 324.1054 358.3158
13.48194 354.8929 324.0838 358.3077
13.49405 354.8841 324.1123 358.304
13.50622 354.8939 324.1041 358.3016
13.51888 354.8864 324.0999 358.2894
13.53102 355.0691 323.7729 358.2655
13.54324 355.0795 323.7755 358.2661
13.55557 355.105 323.7956 358.2441
13.56786 355.0846 323.7855 358.2309
13.57967 355.1228 323.7924 358.2302
13.59181 355.1172 323.7375 358.2346
13.60406 355.127 323.7132 358.2303
13.62593 355.1271 323.7238 358.2355
13.63903 355.118 323.7142 358.2239
13.65114 355.1338 323.6984 358.2454
13.66291 355.1258 323.6931 358.2256
13.67487 355.1054 323.743 358.2226
13.68704 355.0965 323.7491 358.2303
13.70041 355.0848 323.7158 358.2402
13.71208 355.0843 323.6853 358.2371
13.72382 355.0751 323.6703 358.239
13.73651 355.0525 323.6472 358.2674
13.74905 355.0732 323.6583 358.2656
13.76124 355.0831 323.6475 358.2561
13.78306 355.0598 323.6103 358.2755
13.79547 355.0533 323.6157 358.2843
13.81187 355.0294 323.6538 358.2855
13.82392 355.036 323.6486 358.2929
13.83626 354.9994 323.6886 358.2942
13.84869 355.0077 323.69 358.3001
13.86041 355.0123 323.68 358.313
13.87254 355.0123 323.6508 358.3108
13.88489 355.0082 323.6565 358.3124
13.89693 355.198 323.4346 358.2872
13.90913 355.1821 323.4518 358.2851
13.92148 355.1718 323.455 358.2988
13.94326 355.1464 323.4923 358.2899
13.95544 355.1629 323.4639 358.2927
13.96832 355.2925 323.3167 358.2244
13.98118 355.2807 323.2974 358.2179
13.99337 355.313 323.2373 358.21
14.0052 355.3015 323.2174 358.2249
14.01779 355.2802 323.2504 358.2458
14.02968 355.2905 323.2187 358.2533
14.04221 355.3028 323.2078 358.2464
14.05568 355.2653 323.2534 358.2657
14.06793 355.2659 323.2322 358.2528
14.08033 355.2675 323.2154 358.2732
14.10195 355.2715 323.2205 358.2741
14.11477 355.2745 323.2047 358.2667
14.12719 355.2685 323.1901 358.2646
14.1397 355.2614 323.1491 358.3013
14.15522 355.2663 323.1326 358.2972
14.16798 355.2778 323.1285 358.3105
14.18032 355.271 323.0989 358.3275
14.1922 355.2601 323.0783 358.3243
14.20402 355.2707 323.0795 358.3274
14.21594 355.281 323.0426 358.3281
14.22787 355.266 323.0573 358.335
14.24102 355.2457 323.09 358.3645
14.2636 355.2362 323.1006 358.36
14.27571 355.2299 323.094 358.3769
14.28813 355.3537 322.8451 358.2716
14.30042 355.351 322.8448 358.2787
14.31209 355.4165 322.7552 358.234
14.32414 355.3982 322.7431 358.234
14.33669 355.4241 322.6913 358.2293
14.34958 355.4284 322.6673 358.2408
14.36156 355.4164 322.7035 358.2689
14.37356 355.4121 322.6781 358.2608
14.38602 355.4183 322.6948 358.2531
14.39852 355.4188 322.6861 358.2565
14.42135 355.4128 322.6674 358.2581
14.43443 355.4237 322.6494 358.2675
14.44639 355.3948 322.6411 358.3231
14.45851 355.3953 322.6664 358.3039
14.47023 355.3722 322.7061 358.3196
14.48218 355.3731 322.7007 358.3406
14.49388 355.4083 322.6872 358.3926
14.50584 355.4075 322.6746 358.3885
14.51862 355.4111 322.6586 358.4118
14.53101 355.4155 322.6387 358.4019
14.54296 355.4254 322.6343 358.4029
14.55512 355.4624 322.5228 358.3581
14.58182 355.4694 322.5887 358.3626
14.59367 355.4662 322.5651 358.3685
14.60588 355.4514 322.6046 358.3773
14.61851 355.4364 322.6132 358.3871
14.63101 355.4541 322.599 358.3978
14.64316 355.4452 322.6053 358.3892
14.65528 355.4274 322.6113 358.4176
14.66753 355.4324 322.6202 358.4334
14.67943 355.4446 322.6283 358.4175
14.69147 355.4367 322.6118 358.4174
14.70391 355.4406 322.6051 358.4102
14.71633 355.436 322.6689 358.414
14.73831 355.4327 322.706 358.4201
14.75138 355.4732 322.7266 358.4717
14.76419 355.4815 322.7445 358.517
14.77615 355.4703 322.7288 358.5268
14.7886 355.5013 322.7928 358.507
14.80113 355.491 322.7773 358.5277
14.81296 355.5004 322.7993 358.5009
14.82505 355.4911 322.7842 358.5069
14.83711 355.5016 322.7695 358.4987
14.85014 355.4885 322.7642 358.5079
14.86194 355.4911 322.831 358.5254
14.87411 355.5367 322.928 358.5456
14.89615 355.5466 322.895 358.5865
14.90827 355.5612 322.8741 358.5667
14.92032 355.5485 322.9329 358.5948
14.9326 355.5583 322.9315 358.5934
14.94549 355.5607 322.9285 358.5993
14.95748 355.5385 322.9405 358.6198
14.96927 355.5317 322.9897 358.6406
14.98162 355.5492 322.9671 358.632
14.99436 355.5457 322.9641 358.6311
15.00629 355.5347 322.9538 358.6403
15.01877 355.554 322.9549 358.6361
15.03171 355.543 322.9902 358.6588
15.05331 355.5458 322.9821 358.6547
15.06565 355.5329 323.0479 358.662
15.07805 355.5184 323.0952 358.6306
15.0901 355.5419 323.0585 358.4817
15.10269 355.5476 323.0407 358.5033
15.11466 355.5481 323.0676 358.4962
15.12687 355.5638 323.0661 358.5019
15.13948 355.555 323.1221 358.4708
15.15161 355.5831 323.0719 358.4682
15.16377 355.5744 323.1179 358.4626
15.17602 355.5706 323.1161 358.4562
15.18867 355.6104 323.1752 358.5189
15.21057 355.6226 323.1755 358.5116
15.22278 355.6451 323.1688 358.4745
15.23496 355.6436 323.1614 358.5011
15.24692 355.6316 323.1646 358.4891
15.264 355.6421 323.1026 358.5062
15.2764 355.6418 323.1046 358.5052
15.28852 355.6608 323.0938 358.5059
15.30096 355.6362 323.0716 358.5202
15.31326 355.6259 323.0593 358.5396
15.32635 355.6485 323.0439 358.5439
15.33883 355.6021 323.0789 358.606
15.3606 355.5965 323.0085 358.5609
15.37333 355.5772 323.0182 358.5656
15.3854 355.5885 322.9777 358.5792
15.3984 355.5819 322.9475 358.5744
15.41069 355.5815 322.944 358.5893
15.42297 355.594 322.9579 358.5909
15.43517 355.6232 323.0822 358.6602
15.45053 355.6387 323.0492 358.6718
15.46312 355.656 323.0866 358.7024
15.47533 355.6553 323.0797 358.7001
15.4892 355.6685 323.0978 358.6988
15.51083 355.6701 323.0855 358.7185
15.52279 355.6632 323.1468 358.6978
15.535 355.6884 323.1769 358.6927
15.54714 355.6909 323.1619 358.6859
15.55916 355.6869 323.2007 358.6698
15.57116 355.6793 323.2478 358.6616
15.58373 355.6904 323.2508 358.6597
15.59577 355.6968 323.2461 358.6631
15.60747 355.7043 323.3199 358.6544
15.61943 355.6936 323.3188 358.6554
15.63196 355.7032 323.2613 358.6811
15.64404 355.7038 323.2477 358.6994
15.66615 355.7235 323.2559 358.6953
15.67862 355.7292 323.2427 358.696
15.6909 355.7029 323.2961 358.7626
15.70297 355.7137 323.2811 358.764
15.7153 355.6959 323.3441 358.7979
15.72717 355.704 323.3445 358.7873
15.73935 355.6848 323.3302 358.7867
15.75147 355.666 323.3889 358.7852
15.76357 355.6725 323.4255 358.7734
15.77568 355.6767 323.4504 358.7882
15.7876 355.6895 323.4589 358.8554
15.80015 355.6778 323.4472 358.8596
15.82171 355.6839 323.4898 358.8497
15.83428 355.6827 323.4893 358.8696
15.84624 355.6851 323.4668 358.8694
15.85844 355.6816 323.469 358.8589
15.87036 355.6935 323.4557 358.8721
15.88221 355.6933 323.4621 358.8652
15.89414 355.7129 323.4603 358.9326
15.90715 355.6983 323.5119 358.9687
15.91947 355.7012 323.5034 358.979
15.93265 355.6935 323.5193 359.0054
15.94489 355.708 323.5129 359.0031
15.9573 355.7376 323.5331 359.0125
15.98333 355.7335 323.5358 359.0145
15.99707 355.7395 323.5325 359.0205
16.00971 355.7417 323.5648 359.0724
16.02266 355.7365 323.5742 359.0757
16.03537 355.7402 323.5777 359.0431
16.04767 355.7378 323.5503 359.0784
16.06025 355.425 323.4534 358.8058
16.07294 355.4286 323.499 358.8002
16.0861 355.4299 323.4988 358.8026
16.09902 355.4387 323.4988 358.7961
16.11121 355.4512 323.4993 358.7918
16.13352 355.4508 323.4942 358.7829
16.14614 355.4431 323.5533 358.7828
16.15838 355.5724 323.5492 358.8931
16.17013 355.5668 323.6196 358.9167
16.18299 355.5918 323.6178 358.9101
16.19512 355.5808 323.6206 358.9171
16.20735 355.5772 323.618 358.9201
16.21947 355.6084 323.6813 358.9356
16.23174 355.6156 323.6799 358.9423
16.24425 355.6221 323.6581 358.935
16.25612 355.6327 323.6375 358.9618
16.2685 355.6691 323.6581 358.9876
16.29096 355.6537 323.6399 358.9955
16.30378 355.6251 323.6259 358.9508
16.31636 355.6184 323.6763 358.968
16.32829 355.6264 323.7341 358.982
16.34049 355.6303 323.7431 358.9825
16.3526 355.634 323.7547 358.9698
16.36519 355.6416 323.7473 358.9787
16.37731 355.6436 323.7388 358.9649
16.38928 355.63 323.7417 358.9677
16.4014 355.6324 323.7372 358.969
16.41377 355.6474 323.7289 358.9818
16.42619 355.6564 323.7267 358.9605
16.44802 355.6765 323.7343 358.9917
16.46264 355.6772 323.7085 358.9803
16.47443 355.6978 323.7025 358.9928
16.48627 355.6858 323.6953 359.009
16.49867 355.6955 323.7067 358.9915
16.5106 355.6909 323.6875 359.0022
16.5225 355.6854 323.6941 358.9844
16.53605 355.694 323.6511 359.0244
16.55195 355.6793 323.6442 359.015
16.56434 355.6586 323.7173 359.1037
16.57661 355.6562 323.7166 359.0979
16.59865 355.5808 323.6954 358.9957
16.61092 355.5697 323.7078 358.9826
16.62274 355.5957 323.6926 358.9708
16.63523 355.5852 323.7592 359.0022
16.64784 355.5312 323.7098 358.9864
16.65966 355.5555 323.6992 358.9895
16.67179 355.5552 323.7054 358.9761
16.68445 355.5497 323.6969 358.9712
16.69647 355.5349 323.7055 358.9815
16.70866 355.5491 323.6438 359.0044
16.72519 355.5538 323.6536 359.0111
16.73792 355.5551 323.6407 359.0128
16.75984 355.5372 323.7024 359.0399
16.772 355.5238 323.7013 359.0475
16.7849 355.5152 323.7515 359.037
16.79721 355.5385 323.7533 359.0252
16.81087 355.5278 323.788 359.0404
16.8229 355.5368 323.7957 359.0426
16.83502 355.5443 323.8123 359.0238
16.84696 355.5286 323.8435 359.0754
16.85885 355.5366 323.8442 359.0862
16.87113 355.5403 323.8388 359.077
16.88327 355.5558 323.8414 359.0723
16.89593 355.5575 323.8364 359.0894
16.91843 355.5319 323.8341 359.079
16.93099 355.5546 323.825 359.0841
16.94342 355.5487 323.8042 359.112
16.95522 355.5664 323.795 359.1032
16.96755 355.5629 323.7941 359.1099
16.97924 355.5648 323.7909 359.1168
16.9911 355.5321 323.8303 359.1875
17.00312 355.5308 323.8444 359.1935
17.01578 355.5405 323.8272 359.1968
17.02743 355.5452 323.8201 359.1871
17.04019 355.5481 323.8275 359.1991
17.05254 355.5706 323.8184 359.2119
17.0755 355.5577 323.7932 359.2252
17.08789 355.5839 323.8015 359.226
17.10065 355.5789 323.7774 359.2457
17.11266 355.5727 323.8911 359.2936
17.12533 355.5684 323.87 359.3141
17.13751 355.5947 323.8729 359.3192
17.14963 355.6083 323.8855 359.3136
17.16166 355.6012 323.957 359.3211
17.17361 355.6122 323.9362 359.3395
17.18589 355.6096 323.969 359.4034
17.19821 355.5936 323.9599 359.4048
17.21023 355.5954 324.0487 359.4091
17.23213 355.5946 324.0281 359.4113
17.24457 355.5945 324.0928 359.412
17.2566 355.5834 324.1061 359.4375
17.2689 355.5907 324.0903 359.4461
17.28161 355.5825 324.0936 359.4458
17.29423 355.5867 324.1648 359.4629
17.30621 355.7309 323.9023 359.27
17.31822 355.7497 323.9084 359.2838
17.3307 355.7661 323.9095 359.2727
17.34389 355.768 323.8987 359.2665
17.3567 355.7742 323.8745 359.2748
17.36963 355.7588 323.8895 359.2911
17.39608 355.7657 323.8801 359.2817
17.4084 355.7703 323.8477 359.3067
17.42155 355.7703 323.8539 359.284
17.436 355.7952 323.8868 359.2797
17.44818 355.7706 323.9387 359.3193
17.46019 355.7845 323.9281 359.3192
17.47235 355.7789 323.9193 359.3411
17.4845 355.7456 323.9958 359.3764
17.49668 355.769 323.9978 359.3592
17.50831 355.7519 324.0504 359.394
17.52118 355.7685 324.0386 359.415
17.54347 355.7756 324.0429 359.3983
17.55603 355.7689 324.0303 359.4058
17.56882 355.7651 324.0799 359.399
17.58052 355.7642 324.0852 359.3901
17.59221 355.7759 324.0807 359.4253
17.60453 355.7778 324.0911 359.4214
17.61712 355.7562 324.0647 359.4307
17.62906 355.7587 324.0748 359.4476
17.6409 355.7234 324.1496 359.4919
17.65366 355.739 324.133 359.4941
17.66582 355.7515 324.1195 359.4972
17.67826 355.7498 324.138 359.4915
17.70019 355.7376 324.1391 359.4961
17.71208 355.7514 324.1292 359.4902
17.72391 355.7525 324.1235 359.4877
17.73605 355.753 324.1177 359.5048
17.74834 355.7195 324.1892 359.5385
17.76018 355.7276 324.1884 359.5516
17.77272 355.7374 324.208 359.5431
17.78518 355.6805 324.2023 359.531
17.79744 355.687 324.2107 359.5388
17.80963 355.6967 324.2284 359.5184
17.82163 355.7097 324.2332 359.5142
17.83428 355.6988 324.2912 359.5091
17.85618 355.7045 324.3058 359.5172
17.86832 355.668 324.482 359.5966
17.8805 355.3669 324.5621 359.7744
17.89324 355.441 324.5344 359.6093
17.90566 355.5403 324.4742 359.3941
17.91781 355.5436 324.4107 359.3268
17.92984 355.5786 324.5462 359.4529
17.9425 355.4608 324.6973 359.7094
17.95489 355.4403 324.7272 359.8904
17.96754 355.661 324.2909 359.7731
17.9799 355.7189 324.1467 359.5787
17.99244 355.7581 324.1374 359.3391
18.01459 355.7758 324.1191 359.1434
18.02715 355.8298 324.0604 359.0139
18.03912 356.0362 324.0198 358.9531
18.0516 356.0684 324.05 358.8319
18.06379 356.0492 324.1741 358.7199
18.07697 356.0301 324.2028 358.7158
18.08883 355.9272 324.1608 358.7951
18.10105 356.0181 324.0052 358.9351
18.11365 356.1055 323.9679 358.8909
18.12713 356.2683 324.0978 358.9006
18.13914 356.1321 324.2198 358.9266
18.15192 356.3378 324.0628 359.2006
18.17887 356.7864 323.6674 359.3928
18.19086 357.5677 323.257 359.5738
18.20316 358.6249 322.9246 359.9883
18.21581 359.0834 323.2596 0.1867598
18.22784 359.3759 323.7575 0.4567299
18.24046 0.1265088 324.0794 1.138608
18.25326 0.5701244 324.1064 1.504628
18.26545 0.7388499 324.2621 1.946897
18.27776 0.8715997 324.2268 2.607397
18.28977 1.086839 324.3277 2.989287
18.30276 1.024271 324.6121 3.630742
18.32463 0.8239392 325.1138 4.1695
18.33702 0.5932223 325.5171 4.319454
18.34989 0.6552156 326.2246 4.916575
18.36181 1.498964 326.523 5.095685
18.37447 1.913158 326.6533 5.100837
18.38648 2.013025 326.8411 5.012784
18.39886 1.997341 327.1882 4.635692
18.41081 1.89457 327.9836 4.522902
18.42308 1.750295 328.4393 3.972007
18.43519 1.536174 328.923 3.482554
18.44725 0.8249716 329.8882 3.195087
18.45946 0.5780667 330.0675 2.695285
18.48088 0.2939603 330.4907 2.31667
18.49322 0.2162105 330.7729 1.876034
18.50526 359.6065 331.905 1.283635
18.51774 358.8726 332.7703 0.9207273
18.52972 358.5005 333.0603 0.788137
18.54292 357.9816 333.528 0.7109325
18.55484 357.521 333.8279 0.6702602
18.56705 356.8456 334.2523 0.6164222
18.57933 356.088 334.6244 0.5785026
18.59118 355.1583 335.1083 0.4797483
18.60315 354.3356 335.4765 0.452008
18.61576 353.5252 335.8843 0.3118995
18.63923 352.6801 336.3036 0.2750995
18.65225 351.4117 337.0293 0.3645714
18.66458 350.0746 337.6664 0.3008004
18.67699 349.4538 337.9648 0.2930006
18.69029 348.8716 338.4667 0.3241193
18.70235 348.364 338.7929 0.3814716
18.71523 347.7921 339.192 0.3738502
18.72698 347.2855 339.481 0.6146509
18.73914 346.4297 339.7626 0.7602911
18.75183 345.9792 339.9652 0.7704239
18.76369 345.6405 340.3697 0.779871
18.77631 345.4322 340.6372 0.8619401
18.79904 345.1944 340.9284 0.8083049
18.81169 345.1814 341.05 1.051967
18.82394 345.0114 341.337 1.575853
18.8363 345.0573 341.4833 1.793673
18.85435 345.0729 341.7836 2.072175
18.86658 345.3069 342.1889 2.740961
18.87832 345.5281 342.2226 3.131469
18.89044 345.5921 342.3168 3.271571
18.9026 345.868 342.2925 3.605869
18.91444 346.0926 342.4194 3.70527
18.92667 346.3259 342.632 3.793036
18.94924 346.9276 342.9476 4.093901
18.96153 347.2594 343.0386 4.342264
18.9739 347.8989 343.0148 4.815695
18.98608 348.1398 343.0172 4.971431
18.99871 348.5133 342.979 5.236446
19.01128 348.8899 343.1229 5.389066
19.02378 349.3284 343.1169 5.667135
19.03922 349.7555 343.22 5.772997
19.05146 350.5948 343.2509 5.991142
19.06369 351.063 343.3272 6.036434
19.07616 351.5694 343.3613 6.134169
19.08871 352.0891 343.4294 6.191964
19.11082 352.6209 343.4185 6.302625
19.1237 353.0275 343.4021 6.361257
19.13676 353.8059 343.3512 6.370766
19.14946 354.1797 343.3795 6.27778
19.16159 354.6967 343.4542 6.131783
19.17371 355.0553 343.4695 6.068605
19.18691 355.3054 343.5045 5.977723
19.19946 355.5904 343.4939 5.895945
19.2113 355.8456 343.5121 5.771386
19.22368 356.0258 343.5153 5.585715
19.23589 356.227 343.5692 5.368913
19.24817 356.373 343.6066 5.144737
19.27114 356.5223 343.6329 4.98596
19.28442 356.5057 343.6106 5.010787
19.29658 356.4667 343.633 5.068489
19.30894 356.4823 343.6989 5.106945
19.32155 356.4612 343.7405 5.171081
19.33353 356.3304 343.8123 5.3071
19.34564 356.2149 343.8305 5.528859
19.35783 355.9749 343.779 5.838003
19.37081 355.711 343.71 6.103083
19.38285 355.1067 343.4957 6.488323
19.3946 354.7526 343.3711 6.628085
19.40725 354.3268 343.2709 6.684664
19.42965 353.9271 343.1454 6.812582
19.44184 353.4082 342.955 6.89769
19.45507 352.2733 342.6346 6.856945
19.46725 351.8949 342.5146 6.729742
19.47919 351.5423 342.3601 6.643358
19.49117 351.0461 342.0295 6.531168
19.50317 350.4396 341.455 6.609815
19.51513 349.9613 340.906 6.647807
19.52719 349.3601 340.2725 6.422194
19.53981 349.0944 340.0897 6.199805
19.55225 348.8777 339.892 6.05851
19.56446 348.611 339.6049 5.954217
19.59084 348.4666 339.0947 6.072277
19.60289 348.5132 338.5012 6.261794
19.61476 348.4509 337.4052 6.470201
19.62675 348.3858 336.9755 6.408145
19.63875 348.4006 336.6924 6.38401
19.65096 348.4647 336.2962 6.517927
19.66331 348.5353 335.749 6.82164
19.67504 348.6431 335.1754 7.132592
19.68742 348.7132 334.6478 7.407819
19.6995 348.9266 334.2225 7.632659
19.71153 349.1946 333.8317 7.766853
19.72393 349.3763 333.4125 7.847289
19.74624 349.5708 332.9113 7.917405
19.75867 349.821 332.2107 7.929629
19.77081 350.3802 331.0414 7.865714
19.78332 351.0253 330.2015 7.572083
19.79539 351.3885 329.7805 7.312876
19.80742 351.778 329.2534 7.003151
19.81952 352.1688 328.688 6.693526
19.83179 352.5478 328.0669 6.436635
19.84418 352.9232 327.3843 6.110666
19.85616 353.3112 326.7327 5.613506
19.86838 353.6437 326.0811 4.9498
19.88056 353.9239 325.4479 4.215329
19.90282 354.217 324.8176 3.471841
19.91525 354.5534 324.0731 2.731354
19.92804 355.202 322.5648 1.511748
19.94018 355.7917 321.2084 0.6804771
19.95248 356.041 320.4662 0.3188379
19.96559 356.2354 319.6749 0.04263008
19.97739 356.2329 318.8303 359.826
19.98941 356.0591 317.9499 359.6511
20.00145 355.7878 317.0415 359.5513
20.01339 355.5419 316.1939 359.4849
20.02528 355.3615 315.2394 359.4233
20.03761 355.2471 314.2907 359.4091
20.05996 355.0288 312.4755 359.521
20.07357 354.8245 311.5282 359.5624
20.08564 354.3195 309.4983 359.4342
20.09734 353.9733 308.5533 359.4095
20.1093 353.7133 307.5437 359.4745
20.12139 353.4417 306.5443 359.6622
20.13375 353.1052 305.4645 0.002201582
20.14685 352.7928 304.3538 0.4381556
20.15896 352.3356 303.034 0.9701732
20.17092 351.6741 301.7819 1.48006
20.18322 350.5426 299.7808 2.165707
20.19625 350.0852 298.7062 2.508605
20.21766 349.7516 297.6065 2.795633
20.22932 349.6323 296.4009 3.059203
20.24162 349.4775 293.8221 3.570554
20.25409 349.4056 292.6495 3.764032
20.26633 349.4525 291.5333 3.900765
20.27871 349.5297 290.4615 3.988372
20.29153 349.631 289.3693 4.074641
20.30791 349.7038 287.8834 4.31122
20.31972 350.1749 285.4539 4.691767
20.33154 350.4673 284.1714 4.778311
20.34334 350.7225 283.0837 4.778569
20.35552 350.9813 282.0774 4.760988
20.37702 351.3203 281.0025 4.787406
20.38905 351.5425 279.8863 4.855872
20.40098 352.6273 277.5229 5.060138
20.41231 352.7731 276.4146 5.139315
20.42508 352.9691 275.5783 5.068453
20.43703 353.2722 274.879 4.870132
20.44949 353.2615 274.3179 4.722405
20.46118 353.3889 273.2708 4.664966
20.47316 353.7357 272.5728 5.017862
20.48518 353.8983 271.9281 5.445601
20.49672 354.1313 271.5567 5.731115
20.50859 354.4528 271.3561 5.924237
20.53043 354.6744 270.9967 6.186471
20.54215 355.0696 270.7706 6.321857
20.55435 355.687 270.9878 6.402694
20.56669 355.9381 271.0074 6.490858
20.57887 356.3322 270.9525 6.629566
20.59063 356.6557 270.9179 6.753377
20.6023 357.0271 271.0547 6.663938
20.61374 357.4034 271.4252 6.593164
20.62549 357.7002 271.8006 6.530508
20.63754 357.8992 272.0117 6.486848
20.64965 358.1553 272.2368 6.479043
20.66157 358.5388 272.848 6.276981
20.6831 358.4914 273.3315 6.052791
20.6948 358.5034 273.7781 5.915029
20.70884 358.4292 274.3842 5.719825
20.72072 358.4603 274.533 5.618003
20.73267 358.4064 274.7021 5.448817
20.74457 358.3526 274.9186 5.20801
20.75634 358.3296 275.1721 4.920573
20.76824 358.4507 275.407 4.736656
20.78012 358.679 275.5692 4.620783
20.79346 358.9744 275.6354 4.593835
20.80517 359.7322 275.858 4.573026
20.81754 0.1435863 276.0028 4.483603
20.83883 0.5072035 276.1577 4.367652
20.85113 0.7557526 276.175 4.321329
20.86299 0.9788806 276.217 4.113063
20.87466 0.9859474 276.2407 4.035819
20.88717 0.9684216 276.2963 3.999971
20.89904 0.9132247 276.3143 3.94549
20.9109 0.8622742 276.3128 3.91906
20.92276 0.7349531 276.2194 3.913475
20.93494 0.6120768 276.1928 3.853589
20.94651 0.5174524 276.2481 3.741225
20.95837 0.4371642 276.3661 3.576162
20.97041 0.4369019 276.4616 3.461428
20.99672 0.469341 276.5454 3.330752
21.00837 0.4266254 276.5564 3.260828
21.02116 0.3104202 276.5988 2.794067
21.03324 0.3403 276.7004 2.465561
21.04512 0.3101083 276.7627 2.066337
21.05722 0.2323238 276.7401 1.702194
21.06973 0.1580687 276.6645 1.407907
21.08138 0.07268044 276.5383 1.109932
21.09328 0.01940187 276.4697 0.8036283
21.10485 359.9735 276.3641 0.5183699
21.11676 359.8351 276.1812 0.3517156
21.12888 359.5854 275.988 0.1596516
21.15084 359.6228 275.8685 0.05033455
21.16258 355.685 276.1271 0.03783679
21.17423 357.7705 275.8687 0.1221731
21.18617 358.1876 275.748 0.01466455
21.1978 355.4613 275.94 359.9102
21.2096 356.492 275.8967 0.04337197
21.22153 356.9913 275.8048 359.4478
21.23364 357.2072 275.7413 359.4401
21.24566 357.0065 275.8272 359.2808
21.25784 357.8501 275.6111 359.3982
21.26999 357.3256 275.7203 359.204
21.28297 357.5536 275.8716 358.9659
21.3052 357.398 276.0063 358.831
21.31779 357.2855 276.3108 358.6046
21.32921 356.5976 276.6141 358.5714
21.34124 356.2491 276.7949 358.8491
21.35371 355.7965 276.8614 359.178
21.36529 355.488 276.8347 359.6943
21.37727 354.9559 277.0211 0.01774182
21.38927 354.6473 277.0796 0.5319093
21.40191 354.1398 277.248 1.042766
21.41348 353.6928 277.1676 1.783179
21.42507 353.1473 277.2888 2.42026
21.43741 352.8398 277.3494 3.308551
21.45899 352.1204 277.4285 3.842387
21.47099 354.0935 278 1.135495
21.4827 354.293 278.6305 0.8028145
21.49445 354.4768 278.5363 0.7201999
21.50674 354.3313 277.8433 1.338333
21.5189 354.1718 277.8439 1.685943
21.53086 354.0452 278.0409 1.600464
21.54251 354.147 277.9608 1.155664
21.5545 354.4688 277.723 0.9187885
21.5664 354.4245 277.6644 1.026605
21.57845 354.2791 277.7761 1.164882
21.59062 354.2546 277.8504 1.210464
21.61189 354.2744 277.8853 1.239015
21.62433 354.3164 277.9154 1.230137
21.63631 354.286 278.028 1.167606
21.64805 354.2444 278.0589 1.174729
21.65979 354.1835 278.0909 1.208219
21.67586 354.1665 278.0635 1.207052
21.68789 354.2214 278.0958 1.176373
21.70005 354.2115 278.0749 1.181667
21.71171 354.1916 278.0786 1.163384
21.72349 354.218 278.0138 1.18509
21.7401 354.2264 277.9637 1.198627
21.75276 354.273 277.9678 1.11006
21.77512 354.2647 277.9571 1.108348
21.7878 354.2551 277.9916 1.129349
21.80089 354.2374 278.0204 1.153836
21.81306 354.2279 278.026 1.149614
21.82471 354.2003 278.0282 1.149542
21.83658 354.2243 278.0228 1.131265
21.84904 354.2378 278.0297 1.118086
21.86128 354.2199 278.0287 1.140427
21.87321 354.241 278.0131 1.132958
21.88497 354.256 277.9714 1.095669
21.89673 354.263 277.9627 1.094371
21.90875 354.2656 277.9617 1.080056
21.93065 354.2346 277.9421 1.099192
21.94269 354.243 277.9673 1.101396
21.95465 354.2322 278.0172 1.129307
21.96665 354.2253 278.0641 1.119357
21.97838 354.2112 278.0778 1.133112
21.99012 354.2019 278.0845 1.129284
22.00201 354.1899 278.0969 1.139868
22.01371 354.2003 278.0883 1.132152
22.02552 354.1933 278.0884 1.114567
22.03801 354.2093 278.0546 1.094648
22.04999 354.2354 278.0071 1.103143
22.0619 354.2467 277.9805 1.072803
22.08457 354.2327 277.9619 1.049758
22.09696 354.2431 277.9261 1.059457
22.10923 354.2393 277.9805 1.066062
22.12148 354.2439 277.9877 1.076959
22.13386 354.2238 278.0104 1.083054
22.14559 354.2347 278.0162 1.074944
22.15722 354.2076 278.0569 1.097982
22.16928 354.2069 278.0546 1.099879
22.18107 354.1963 278.0818 1.08258
22.19271 354.1918 278.0858 1.09108
22.20453 354.1922 278.0774 1.119942
22.21741 354.2024 278.0853 1.096033
22.23908 354.2208 278.0484 1.073792
22.25164 354.2224 278.0376 1.062753
22.26305 354.233 277.991 1.057132
22.2753 354.2205 277.9998 1.038783
22.28787 354.2273 277.9818 1.035093
22.30021 354.2383 277.9937 1.037578
22.31178 354.2421 277.9893 1.053127
22.32423 354.2228 277.9998 1.049369
22.33628 354.2127 277.9977 1.044096
22.34813 354.2277 278.0129 1.048839
22.35978 354.2025 278.0099 1.057213
22.37193 354.2254 278.0242 1.074543
22.39882 354.2186 278.0631 1.058514
22.41369 354.2043 278.0537 1.056328
22.42852 354.2264 278.0334 1.063253
22.44026 354.2114 278.0346 1.056568
22.45292 354.206 278.0234 1.035751
22.46529 354.2127 278.0219 1.035308
22.4771 354.208 278.0257 1.040753
22.48889 354.227 278.0067 1.02373
22.50129 354.2039 278.0051 1.046206
22.51317 354.2198 278.0032 1.034827
22.5253 354.2074 278.0067 1.046419
22.54704 354.2124 277.9957 1.03869
22.55867 354.2019 278.005 1.031665
22.57059 354.1976 277.9923 1.037963
22.58908 0 0 0
