時間[s] x軸周り[deg] y軸周り[deg] z軸周り[deg]
0 0 0 0
0.02 0 0 0
0.05333333 350.6664 57.11119 326.9937
0.06778643 350.3129 56.84865 326.2153
0.07288193 350.3127 56.87501 326.1823
0.08289593 350.3065 56.91732 326.1509
0.09420333 350.3076 56.95213 326.1335
0.1057409 350.3001 56.97269 326.1057
0.1169111 350.3119 57.00608 326.086
0.1271796 350.3271 57.03879 326.096
0.1383918 350.3559 57.09495 326.077
0.1508278 350.3534 57.15437 326.0328
0.1608911 350.3838 57.22099 325.995
0.1715234 350.3908 57.25489 325.9673
0.1828961 350.3857 57.26593 325.9286
0.193873 350.3611 57.28313 325.8885
0.2050728 350.3497 57.28084 325.849
0.2163622 350.3356 57.2311 325.8243
0.2270642 350.311 57.21592 325.8081
0.2381586 350.3068 57.20559 325.7943
0.2494783 350.283 57.22108 325.8121
0.2604629 350.2624 57.21285 325.8412
0.271615 350.2515 57.21453 325.8621
0.2827713 350.2491 57.2022 325.891
0.294128 350.2283 57.18423 325.907
0.3049569 350.2092 57.15574 325.9298
0.3163681 350.1794 57.11052 325.9484
0.3272631 350.1355 57.0653 325.9833
0.3382456 350.0914 57.03127 326.0179
0.3491621 350.0349 57.01861 326.0529
0.3605842 350.0126 57.0093 326.0819
0.3715238 349.9955 57.00621 326.1277
0.3828922 350.0043 56.97852 326.152
0.3939313 350.0326 56.96673 326.1871
0.405 350.075 56.96826 326.2322
0.4158714 350.132 57.0103 326.2586
0.4271718 350.1655 57.04425 326.2533
0.4384937 350.1721 57.11007 326.2559
0.4495752 350.1642 57.19726 326.233
0.4607185 350.1355 57.2583 326.2149
0.4716142 350.1094 57.31787 326.2042
0.4827856 350.0823 57.39698 326.2052
0.4940307 350.0384 57.45211 326.199
0.505049 349.9708 57.50244 326.2057
0.5160241 349.9362 57.58536 326.2084
0.5269421 349.9077 57.67971 326.2195
0.5384094 349.8886 57.7833 326.1674
0.5494365 349.8712 57.89379 326.1628
0.5605128 349.8317 58.03206 326.1249
0.5714361 349.8011 58.17528 326.0844
0.5831211 349.748 58.29039 326.0594
0.5940051 349.7043 58.39549 326.0042
0.6049981 349.6454 58.48207 325.9658
0.6162608 349.6208 58.49942 325.9529
0.6272128 349.5649 58.50274 325.9276
0.6383246 349.5053 58.47033 325.9147
0.6493232 349.4117 58.38718 325.9132
0.6602952 349.3368 58.30307 325.9135
0.6719681 349.2178 58.20718 325.9187
0.6826732 349.0688 58.13631 325.8837
0.6936938 348.8838 58.06654 325.8402
0.7052291 348.7257 58.05599 325.7886
0.7182564 348.5511 58.08372 325.7297
0.7296999 348.3936 58.11715 325.7277
0.7425245 348.2421 58.1593 325.7566
0.7536258 348.0815 58.20309 325.7887
0.7656146 347.95 58.23682 325.8597
0.7769358 347.8516 58.20335 325.9753
0.7880538 347.7854 58.17963 326.0983
0.7992013 347.7278 58.14583 326.2528
0.8100981 347.759 58.10269 326.4234
0.8215775 347.7801 58.0742 326.5739
0.8329015 347.8482 58.06466 326.6711
0.8434348 347.8768 58.09978 326.7509
0.8544349 347.8854 58.1843 326.8007
0.8666303 347.856 58.30695 326.8862
0.8770328 347.8404 58.41205 326.9485
0.8877822 347.8218 58.53934 327.0366
0.898662 347.7768 58.67178 327.1237
0.9101279 347.7166 58.7896 327.25
0.9211558 347.6333 58.88129 327.3615
0.9321564 347.5012 58.97791 327.5023
0.9434119 347.4249 59.09727 327.6373
0.9546559 347.3455 59.20309 327.7716
0.96535 347.3279 59.25138 327.9028
0.976758 347.3158 59.32961 327.9613
0.9881809 347.315 59.38218 328.0089
0.9987482 347.3629 59.5041 328.0484
1.010053 347.4571 59.64074 328.0736
1.021085 347.5657 59.79154 328.1769
1.032388 347.6672 59.86702 328.2436
1.043381 347.6813 59.86005 328.3234
1.054515 347.6968 59.78971 328.4534
1.065408 347.7823 59.6174 328.6401
1.076697 347.8751 59.44102 328.8336
1.087804 348.0191 59.22994 329.066
1.09908 348.3436 59.04978 329.3033
1.110145 348.7887 58.89096 329.3932
1.121283 349.083 58.71414 329.3393
1.132191 349.2531 58.59674 329.2772
1.143961 349.3813 58.46611 329.2668
1.154684 349.6797 58.27472 329.434
1.165853 350.264 58.05182 329.7789
1.176753 350.7943 57.88228 330.1556
1.187845 351.0631 57.72879 330.4583
1.19907 351.0479 57.57027 330.7842
1.210086 351.0927 57.34225 331.2216
1.221285 351.307 57.06181 331.8586
1.23218 351.6005 56.84126 332.4729
1.243279 351.8126 56.67762 333.0927
1.254616 352.1413 56.52286 333.6537
1.265318 352.8382 56.41447 334.0932
1.276582 353.3855 56.24218 334.5303
1.28785 353.8814 56.00013 334.9532
1.29922 354.1583 55.77225 335.4311
1.30974 354.5977 55.40885 336.1271
1.321273 355.3344 55.10351 336.9632
1.332518 356.1261 54.81553 337.8822
1.343973 356.7221 54.539 338.7404
1.35452 357.3456 54.23412 339.5531
1.3658 358.0525 54.02913 340.3363
1.376562 358.8815 53.66753 341.1662
1.387844 359.8705 53.45494 341.9739
1.398923 1.061964 53.22832 342.8125
1.410327 2.539 52.88377 343.642
1.421284 3.993289 52.58654 344.4043
1.432156 5.208038 52.37168 345.1878
1.443413 5.941581 52.30116 345.9384
1.454696 6.57415 52.3413 346.6815
1.465704 7.375966 52.37408 347.5578
1.477021 8.629556 52.43946 348.5066
1.487691 10.18546 52.67093 349.528
1.498973 11.54566 52.80021 350.3996
1.510104 12.86448 52.93003 351.0258
1.521479 14.25899 53.10027 351.3542
1.532509 15.70908 53.30019 351.7541
1.543503 17.41722 53.68579 352.055
1.554554 19.02491 54.08031 352.6112
1.56572 20.49685 54.37931 353.225
1.576642 21.77627 54.48699 353.9254
1.587824 22.94617 54.44546 354.7284
1.598755 24.09422 54.31853 355.53
1.610745 25.26139 54.23467 356.3018
1.621539 26.3521 54.0463 356.9399
1.632444 27.21305 53.70274 357.3555
1.643664 28.10691 53.44273 357.7949
1.654849 28.70676 53.10337 358.1825
1.665995 29.35817 52.80115 358.68
1.676717 29.86835 52.52216 359.2899
1.68787 30.32455 52.27023 359.962
1.699869 30.77403 52.00989 0.6303881
1.710215 30.87103 51.72845 1.327061
1.721354 31.03565 51.41526 1.96177
1.732555 31.0681 51.05263 2.59671
1.743689 31.08356 50.7929 3.294187
1.754746 30.98328 50.65137 3.95124
1.766106 30.90008 50.54872 4.577284
1.777036 30.69098 50.56762 5.166531
1.78813 30.52532 50.60986 5.765596
1.79913 30.31968 50.59888 6.371717
1.810426 30.13435 50.59519 7.025714
1.821328 29.94784 50.53456 7.673461
1.832344 29.70846 50.63193 8.383623
1.843486 29.49785 50.85346 9.099589
1.854786 29.21532 51.08992 9.761539
1.865714 28.93342 51.43096 10.37051
1.87688 28.48503 51.65839 10.91007
1.887654 27.95119 51.84251 11.36271
1.899169 27.4879 51.96719 11.8572
1.909825 27.13872 52.08308 12.51608
1.921166 26.84948 52.19942 13.25644
1.932248 26.45959 52.30873 13.96624
1.943401 26.10522 52.47184 14.71493
1.954283 25.31696 52.57566 15.32476
1.965821 25.41883 52.44823 15.94458
1.976618 25.14967 52.74469 16.67248
1.987978 24.87521 52.7464 17.15763
1.999036 24.50561 52.75507 17.35447
2.010024 24.06673 52.52834 17.44954
2.021152 23.8815 52.33157 17.67307
2.032225 23.79718 52.41003 18.20071
2.043697 23.58155 52.44001 18.826
2.054465 23.29109 52.56382 19.3533
2.065568 22.81335 52.48777 19.66776
2.076988 22.15983 52.3857 19.71939
2.087784 21.5742 52.28392 19.81468
2.099185 21.12326 52.08609 19.8665
2.1099 20.76565 51.86236 19.9043
2.121235 20.56769 51.74091 20.07527
2.132435 20.31178 51.43463 20.29663
2.143441 20.05224 51.16631 20.493
2.154626 19.79963 50.91296 20.6823
2.165707 19.42742 50.42245 20.7502
2.176932 18.97251 49.81945 20.62066
2.187775 18.47904 49.30788 20.42964
2.199202 17.99686 49.1431 20.21739
2.210355 17.68479 48.45655 19.92832
2.221012 17.52952 47.74529 19.51554
2.232379 17.46018 47.40826 19.11301
2.243468 17.0926 46.80458 18.76108
2.254624 16.79771 46.09681 18.24586
2.265654 16.44899 45.64143 17.67309
2.277066 16.0362 44.97576 16.97009
2.288435 15.43509 43.98056 16.06382
2.299186 14.9168 43.0529 15.01996
2.310143 14.29275 41.96626 13.91736
2.321891 13.44309 40.96525 12.91274
2.332308 12.68662 40.1436 11.7864
2.343692 12.04297 39.19915 10.58434
2.354429 11.0996 38.33067 9.403279
2.366275 10.13696 37.40232 8.179708
2.376529 9.090307 36.35197 7.023654
2.38818 8.123626 35.24209 5.945271
2.399094 6.990367 34.21153 5.004708
2.410364 5.813774 33.20404 4.110059
2.421263 4.615136 32.0321 3.211635
2.432583 3.381361 30.86457 2.200199
2.4435 2.268495 29.68654 1.241586
2.45497 0.9899614 28.55764 0.3509782
2.465838 0.002792847 27.4454 359.6772
2.476943 359.0921 26.34384 359.2812
2.488026 358.5117 25.17895 359.2849
2.499231 358.1144 24.57271 359.2583
2.51001 357.6827 24.40842 358.6697
2.521254 356.7339 24.12288 357.8262
2.532474 355.3633 23.45091 357.2011
2.543949 354.7618 22.99761 356.482
2.554909 354.272 22.71702 355.935
2.565892 353.6288 22.37374 355.4832
2.576698 352.9868 22.02631 355.0378
2.588254 352.3485 21.82654 354.634
2.599183 351.9786 21.69355 354.2087
2.610508 351.5955 21.60687 353.6855
2.621331 351.0806 21.46074 353.1313
2.632698 350.8466 21.55406 352.3278
2.643607 350.6435 21.66468 351.5237
2.654637 350.6229 21.8988 350.7513
2.66598 350.7474 22.05666 349.9323
2.676802 350.867 22.20494 349.114
2.687956 351.0886 22.35551 348.3354
2.699272 351.3052 22.63021 347.5623
2.71031 351.5067 22.867 346.8144
2.721397 351.6216 23.09411 346.0941
2.732363 351.7419 23.40048 345.4624
2.743838 351.8783 23.66885 344.9176
2.754542 352.0443 23.90791 344.5052
2.765864 352.3011 24.10571 344.1044
2.776969 352.5482 24.18554 343.7286
2.787988 352.7413 24.23744 343.4493
2.799042 352.9071 24.29903 343.1068
2.810416 353.0485 24.29396 342.9465
2.821582 353.1317 24.31862 342.7444
2.832444 353.1401 24.35527 342.6325
2.843829 353.099 24.43856 342.5814
2.855072 353.0538 24.57313 342.5573
2.865908 352.9367 24.78817 342.6628
2.876834 352.9551 24.85157 342.8927
2.887938 352.9125 25.05338 343.2661
2.899535 352.8756 25.27473 343.6111
2.91031 352.9025 25.55071 344.1131
2.921591 352.9613 25.84783 344.554
2.932602 353.1126 26.2355 345.0722
2.943839 353.3708 26.75856 345.5852
2.954674 353.5752 27.37168 346.149
2.966066 353.8122 28.23499 346.8577
2.97674 354.0484 29.0798 347.6648
2.988392 354.1673 30.07166 348.6324
2.999111 354.1988 31.1258 349.5514
3.010702 354.2698 32.33465 350.5248
3.021338 354.3096 33.50173 351.5724
3.032297 354.5905 34.76281 352.5081
3.044086 354.8096 36.26564 353.4894
3.054685 354.9696 37.83253 354.3785
3.065711 355.127 39.78304 355.1719
3.077106 355.2856 41.68619 355.8976
3.087789 355.3147 43.75418 356.5214
3.099118 355.2796 45.69463 357.0556
3.109796 355.1239 47.63004 357.4352
3.121103 354.8748 49.50073 357.7558
3.132332 354.8116 51.04792 358.1252
3.143307 354.9066 52.54177 358.5826
3.154931 354.8881 53.99818 358.9216
3.165816 354.7568 55.3485 359.1027
3.176592 354.6544 56.52798 359.196
3.188058 354.5971 57.5966 359.3765
3.198825 354.7015 58.74634 359.6917
3.210019 354.9857 59.77566 0.1707255
3.221114 355.1995 60.73745 0.6524934
3.232368 355.2898 61.51233 1.106625
3.243164 355.3718 62.13064 1.501436
3.254539 355.5382 62.75137 1.83354
3.265673 355.8147 63.31854 2.015908
3.276745 356.0877 64.0002 2.104511
3.288103 356.4372 64.54427 2.048989
3.299135 356.9031 65.07116 1.998435
3.310413 357.401 65.49467 1.875866
3.321563 357.9142 65.83979 1.644446
3.332269 358.3981 66.18751 1.39851
3.343187 359.0272 66.54594 1.031484
3.354291 359.6227 66.92396 0.6714702
3.365768 0.2270262 67.25565 0.2472702
3.376898 0.7129697 67.46597 359.7841
3.387776 1.005392 67.54657 359.1205
3.399109 1.207103 67.63607 358.4568
3.41022 1.440499 67.75463 357.8902
3.421223 1.864099 67.87881 357.3383
3.432262 2.310805 67.97884 356.7824
3.443699 2.520899 68.02547 356.1472
3.454648 2.64415 68.18023 355.5179
3.465511 1.339512 68.27671 354.1244
3.476687 359.7339 67.62307 352.9651
3.487597 359.5595 66.77519 352.6454
3.499037 359.9283 66.72307 352.7884
3.510295 359.6321 66.40751 353.1205
3.521167 358.6603 66.21481 353.4072
3.532041 357.5063 66.09423 353.4173
3.54321 355.873 65.73664 353.6093
3.554715 354.5891 65.20974 353.5754
3.565325 353.737 64.52934 353.5136
3.576463 352.9355 63.93388 353.6537
3.587614 352.5076 63.59983 353.9092
3.598684 352.435 63.67372 354.5662
3.610029 352.3959 63.89159 355.3451
3.621161 352.5486 64.48951 355.9548
3.632359 352.3374 65.01089 356.1082
3.643224 352.0116 65.52327 355.7925
3.654615 352.1788 66.35958 355.0441
3.665486 352.4977 67.23732 354.2136
3.676773 352.531 68.23286 353.1018
3.687764 352.4634 68.81346 352.5651
3.698773 352.1376 69.60352 352.2604
3.710155 351.9234 70.12834 352.0864
3.721184 351.4028 70.24549 352.1023
3.73231 350.8147 70.07903 352.0551
3.743468 350.2745 69.99609 351.9914
3.754352 349.697 69.79848 351.8773
3.765768 349.1702 69.64599 351.9581
3.776553 348.6453 69.63149 352.0178
3.788666 348.2939 69.43993 352.2196
3.798923 347.9413 69.05088 352.4677
3.810232 347.6251 68.58708 352.6306
3.821398 347.3072 68.16442 352.737
3.832431 346.8506 69.09335 353.4919
3.843498 346.6189 68.98199 353.7558
3.854548 346.5868 68.68672 353.9934
3.865477 346.213 68.3783 354.3777
3.876688 345.9806 68.01241 354.6163
3.887897 345.688 68.73263 355.1688
3.898974 345.394 68.45633 355.4951
3.910243 345.2948 68.03036 355.7634
3.921367 345.1013 67.76393 356.214
3.932171 345.0795 67.3528 356.5211
3.943877 344.9268 67.10811 356.9933
3.954306 344.8434 66.88909 357.4488
3.965343 344.7563 66.74252 357.8146
3.976862 344.5446 66.6493 358.1483
3.987732 344.2671 66.63692 358.3398
3.999344 343.9658 66.67948 358.431
4.010344 343.5494 66.721 358.3998
4.021042 343.1136 66.9491 358.4026
4.032391 342.5783 67.19567 358.3008
4.043747 342.0234 67.48617 357.8989
4.054624 341.575 67.62599 357.7164
4.065839 341.2353 67.84563 357.4345
4.076429 340.7827 67.94308 357.3824
4.08775 340.4922 67.38568 357.6495
4.099406 340.1636 66.96805 357.8012
4.109919 340.0579 66.66428 357.9531
4.121141 340.0697 66.41211 358.1086
4.132034 340.1476 66.14018 358.2555
4.143273 340.3529 65.94245 358.2532
4.154417 340.5797 65.84599 358.2088
4.165732 340.8512 65.6267 358.1559
4.176846 341.1185 65.60498 358.0707
4.187811 341.3644 65.71165 357.9439
4.199074 341.6014 65.93748 357.7679
4.210066 341.7554 65.97979 357.5657
4.22098 341.7971 66.04385 357.3401
4.232248 341.7874 66.06686 357.1353
4.243251 341.6661 66.12325 356.9958
4.254967 341.5671 66.13541 356.8636
4.265881 341.4134 66.10968 356.7387
4.276759 341.2427 66.10746 356.6669
4.287713 341.0687 66.07804 356.6364
4.299155 340.9585 66.04771 356.6075
4.310029 340.863 66.0041 356.5999
4.321263 340.8177 65.98291 356.5962
4.332449 340.7788 65.93076 356.6161
4.343557 340.7399 65.88422 356.6476
4.354572 340.7363 65.86011 356.6293
4.365407 340.7238 65.89523 356.5712
4.376585 340.7903 65.94852 356.4645
4.388021 340.8492 65.96306 356.3294
4.399514 340.9854 66.0925 356.1497
4.410477 341.1104 66.22031 355.966
4.421519 341.2267 66.34599 355.7641
4.432375 341.3818 66.39111 355.5747
4.443288 341.5401 66.49957 355.381
4.454427 341.7665 66.58138 355.2056
4.465829 341.9481 66.65306 355.054
4.476639 342.1361 66.74435 354.9327
4.488051 342.2401 66.75391 354.7971
4.499233 342.3697 66.78966 354.6841
4.510125 342.4538 66.82075 354.604
4.521027 342.5257 66.88329 354.534
4.53203 342.6309 66.95671 354.4326
4.543234 342.7086 67.04642 354.3497
4.554615 342.8082 67.1404 354.2669
4.565828 342.927 67.21549 354.2007
4.5769 343.0609 67.30643 354.1168
4.587879 343.1875 67.36856 354.0482
4.599079 343.3416 67.43851 353.9731
4.610424 343.4894 67.50063 353.873
4.621042 343.6249 67.56424 353.7523
4.63226 343.7266 67.6247 353.6225
4.643622 343.8566 67.71931 353.4928
4.654467 343.9725 67.79774 353.3741
4.665344 344.1081 67.90228 353.2547
4.676938 344.2513 68.02521 353.1605
4.687764 344.4383 68.13744 353.0579
4.699077 344.6463 68.23599 352.9503
4.710009 344.8787 68.29008 352.8574
4.721475 345.1343 68.35265 352.7349
4.732082 345.3438 68.39538 352.5948
4.743452 345.5356 68.41914 352.4486
4.754525 345.7319 68.47089 352.3076
4.765791 345.9062 68.56332 352.1316
4.776703 346.0887 68.67914 351.976
4.788309 346.273 68.84891 351.7776
4.798977 346.5019 69.03165 351.5682
4.810112 346.7444 69.17725 351.3845
4.820885 347.0243 69.37254 351.1563
4.832153 347.2915 69.52244 350.9396
4.843369 347.5729 69.65327 350.7274
4.854577 347.8049 69.7716 350.5103
4.865631 347.9782 69.86338 350.3093
4.876932 348.099 69.9519 350.1527
4.887732 348.1631 70.02795 349.9868
4.89932 348.2172 70.13589 349.8579
4.910035 348.2906 70.26154 349.7126
4.921048 348.4288 70.45102 349.5591
4.931975 348.5964 70.63729 349.3887
4.943608 348.7842 70.80096 349.2262
4.954445 349.0074 70.95692 349.0888
4.965807 349.2036 71.10081 348.9623
4.976643 349.3816 71.2058 348.8693
4.987742 349.5032 71.28742 348.7821
4.998991 349.5926 71.34979 348.6841
5.010399 349.6749 71.45011 348.5646
5.021193 349.7517 71.57297 348.4237
5.032439 349.8521 71.74555 348.253
5.04348 349.9743 71.88353 348.1327
5.05478 350.146 72.07266 347.9742
5.065628 350.3064 72.24454 347.8301
5.076537 350.4889 72.42245 347.6902
5.087966 350.6449 72.5916 347.5607
5.09899 350.7815 72.7386 347.438
5.109996 350.8769 72.89692 347.3175
5.121152 350.9702 73.04715 347.1696
5.132193 351.0304 73.21406 347.0061
5.143382 351.0997 73.43362 346.8297
5.154665 351.1814 73.68612 346.6283
5.165461 351.2878 73.96472 346.4084
5.176469 351.4294 74.25437 346.2184
5.18811 351.5735 74.56847 346.0481
5.199086 351.7068 74.85107 345.8822
5.210097 351.8359 75.08775 345.761
5.221211 351.9616 75.31535 345.6706
5.23226 352.0165 75.50713 345.5742
5.243371 352.1007 75.71554 345.4789
5.254219 352.1973 75.94234 345.3503
5.265434 352.2679 76.2208 345.1588
5.276437 352.3546 76.5152 344.9495
5.28799 352.4699 76.84534 344.7152
5.298837 352.6009 77.16281 344.5234
5.309875 352.7141 77.39537 344.2127
5.321198 352.8127 77.65228 344.0266
5.33209 352.9798 77.89555 343.8687
5.343638 353.0908 78.1051 343.6821
5.354558 353.1637 78.34083 343.4683
5.365625 353.2269 78.56791 343.2364
5.376614 353.2783 78.81459 343.0081
5.387633 353.3173 79.08118 342.7896
5.398892 353.3774 79.38045 342.5563
5.409986 353.3929 79.69086 342.3542
5.421241 353.4259 80.01914 342.1771
5.432223 353.4713 80.33295 342.0245
5.443181 353.5132 80.65915 341.9016
5.454759 353.519 80.97282 341.8135
5.465531 353.527 81.24648 341.7689
5.476888 353.5472 81.53027 341.7283
5.487781 353.5113 81.7471 341.7592
5.499315 353.5279 81.94666 341.7689
5.510259 353.5389 82.10315 341.7471
5.521334 353.5773 82.20931 341.7606
5.532325 353.5953 82.30693 341.7571
5.543457 353.6108 82.37991 341.7429
5.554341 353.6444 82.47193 341.7038
5.565778 353.6771 82.54918 341.6203
5.576674 353.7344 82.65607 341.5173
5.587675 353.8187 82.76662 341.3938
5.598697 353.8356 82.89677 341.2315
5.609955 353.8404 83.04373 341.0696
5.621165 353.8342 83.21812 340.8955
5.632386 353.8003 83.39408 340.7062
5.64345 353.7552 83.60386 340.4865
5.654883 353.6741 83.84228 340.259
5.665685 353.6002 84.08206 340.062
5.676732 353.494 84.31165 339.8904
5.687911 353.3899 84.47741 339.7588
5.698867 353.274 84.59295 339.6705
5.710222 353.1248 84.67538 339.605
5.721279 352.9815 84.70481 339.5783
5.732285 352.8936 84.72882 339.6169
5.743553 352.7691 84.75656 339.6527
5.754302 352.6172 84.77029 339.6986
5.765684 352.4431 84.77531 339.7388
5.77676 352.2629 84.73949 339.7815
5.787868 352.1134 84.69672 339.8327
5.798918 351.9399 84.64325 339.9153
5.810558 351.7626 84.57104 340.0285
5.821181 351.5905 84.51513 340.1686
5.832304 351.3813 84.44815 340.3251
5.843085 351.1798 84.39441 340.4581
5.854582 350.9803 84.33566 340.5833
5.865726 350.796 84.25794 340.6928
5.876776 350.578 84.20914 340.7588
5.887813 350.3822 84.16855 340.8331
5.898883 350.1469 84.17593 340.9395
5.909875 349.9022 84.17152 341.0437
5.920927 349.6653 84.14841 341.1313
5.932056 349.4304 84.12403 341.2094
5.94352 349.1935 84.12371 341.2739
5.954303 348.9491 84.0798 341.3615
5.966129 348.7194 84.00586 341.4665
5.976502 348.4854 83.97483 341.5854
5.987644 348.2837 83.93114 341.7314
5.99869 348.0692 83.89998 341.8781
6.010247 347.8745 83.87628 342.019
6.021078 347.6346 83.85122 342.1358
6.032229 347.4228 83.8293 342.2491
6.043246 347.2027 83.80136 342.3734
6.054726 347.0019 83.79568 342.5132
6.065558 346.8461 83.79923 342.6474
6.076895 346.7115 83.78379 342.7605
6.087754 346.5611 83.79256 342.8589
6.09899 346.3463 83.83741 342.9021
6.109691 346.1078 83.85226 342.9539
6.121542 345.8801 83.86546 342.9936
6.13232 345.6091 83.87997 342.9886
6.143541 345.3457 83.85052 343.0241
6.15435 345.0796 83.83663 343.0087
6.165646 344.8595 83.80901 343.0148
6.176965 344.6642 83.78357 342.989
6.187595 344.5293 83.75237 342.9589
6.198674 344.4131 83.72443 342.9391
6.209979 344.3236 83.6979 342.9247
6.221059 344.2357 83.66015 342.9252
6.232454 344.1951 83.58196 342.9392
6.243931 344.1455 83.42896 342.9848
6.254444 344.117 83.22717 343.0323
6.265404 343.974 83.04703 343.0515
6.277123 343.7144 82.88806 343.0138
6.287964 343.4391 82.72446 342.9964
6.298966 343.1048 82.58616 342.9161
6.310309 342.774 82.49687 342.8383
6.320972 342.4456 82.34647 342.7855
6.33223 342.1674 82.13832 342.7977
6.343487 341.8943 81.89383 342.8306
6.354234 341.6694 81.65985 342.8838
6.365352 341.4669 81.3889 343.0187
6.377041 341.3022 81.13085 343.1491
6.387619 341.1896 80.87125 343.3167
6.399094 340.7824 80.54142 343.4195
6.410207 340.765 80.16461 343.5922
6.421124 340.4861 79.95746 343.7177
6.43252 340.2704 79.5545 343.8883
6.443395 339.6511 79.17978 344.1542
6.454676 339.2388 79.10262 344.3103
6.46551 338.5833 79.0137 344.6432
6.476578 338.3048 78.86807 344.8227
6.487514 338.0251 78.80814 345.0082
6.499041 337.7521 78.92939 345.0615
6.510137 337.5237 78.8218 345.2328
6.521506 337.2007 78.73576 345.434
6.532117 337.1317 78.67381 345.6708
6.543254 336.7797 79.5855 345.0589
6.554426 336.3325 80.30154 344.7846
6.56563 336.4259 80.28463 345.3537
6.576552 336.5058 80.45803 345.4785
6.587913 336.382 80.7428 345.4407
6.598724 335.998 81.27768 345.2212
6.610054 335.6609 81.70223 344.9094
6.621092 335.2676 82.24321 344.4513
6.632519 335.0775 83.19436 343.8273
6.643101 335.0122 83.82026 343.5417
6.654482 335.0711 84.15449 342.9293
6.665556 335.0433 84.36953 341.8859
6.676683 335.31 84.98708 340.5331
6.687751 335.6932 85.79702 339.2072
6.698992 335.9056 86.83696 337.7241
6.709986 336.433 87.5351 336.217
6.72121 336.9655 87.85022 334.537
6.732563 336.9227 88.46329 332.3608
6.743547 336.6808 89.49872 329.8297
6.754166 336.5814 90.99544 326.608
6.765485 336.7837 92.65012 323.425
6.776511 337.5063 94.27064 320.0434
6.787796 338.5822 95.46284 316.8152
6.798979 339.7788 96.33962 313.6273
6.809838 341.2285 96.91823 310.2728
6.8211 343.0545 97.11216 307.706
6.832483 344.9154 97.33183 305.5409
6.843421 346.6869 98.30434 302.8518
6.854546 348.1768 98.68785 300.701
6.865392 350.0585 98.7056 299.2212
6.876975 351.686 98.56213 298.0157
6.887782 352.6662 98.55562 296.5376
6.899148 353.0153 98.56123 295.0565
6.910022 352.9422 98.37563 294.001
6.921266 353.1574 98.2815 293.0247
6.932462 353.1632 98.31881 292.169
6.943419 352.4405 98.89251 291.5393
6.954314 351.4551 99.45194 290.9578
6.965741 350.2563 99.83741 290.3418
6.976892 348.5758 100.2696 290.0299
6.987789 347.2375 100.747 289.665
6.999026 345.819 101.4133 289.3886
7.010371 344.3813 102.1187 289.172
7.021079 343.046 102.7037 288.9351
7.032323 341.8849 103.1801 288.7673
7.043325 340.8274 103.684 288.5571
7.054959 339.5047 104.2501 288.3612
7.065353 338.3301 104.4686 288.0734
7.076572 337.2234 104.5628 287.7398
7.087766 336.1805 104.8433 287.4037
7.098901 335.2469 104.9556 287.19
7.109957 334.5367 105.1382 286.9599
7.120908 333.673 105.348 286.7366
7.132033 332.9715 105.315 286.4848
7.143619 332.3922 105.3768 286.2557
7.154492 331.611 105.6309 285.9277
7.165649 331.2465 105.6118 285.5417
7.176817 330.894 105.8385 285.0654
7.187839 330.5222 106.0326 284.5476
7.198705 330.1931 106.0532 284.0758
7.210223 329.9425 105.8196 283.7091
7.221302 329.638 105.4601 283.5126
7.232484 329.4453 104.9594 283.3819
7.243256 329.1745 104.6387 283.252
7.254614 329.0005 104.2985 283.2055
7.265179 328.9267 103.9975 283.2249
7.276555 328.8068 103.865 283.1287
7.287834 328.6056 103.8032 283.1093
7.299016 328.8382 104.4225 282.8156
7.309897 328.5885 104.3505 282.8795
7.321151 328.6029 104.2802 283.1026
7.332303 328.5036 103.6125 283.7301
7.343484 328.3677 103.2391 284.3492
7.35455 328.2307 102.9367 284.9297
7.365809 328.2561 102.6451 285.5046
7.376715 328.3665 102.2431 286.1316
7.388008 328.5106 101.9042 286.7521
7.398902 328.8128 101.664 287.315
7.410078 329.112 101.3282 287.9388
7.421144 329.4666 101.0011 288.5527
7.432505 329.8296 100.8081 289.1238
7.443426 330.2286 100.5175 289.7508
7.454456 330.7287 99.91704 290.566
7.465617 331.1675 99.52489 291.2847
7.476428 331.7319 99.18871 292.0326
7.487907 332.3883 98.77186 292.8227
7.498903 333.0563 98.32751 293.5962
7.509929 333.751 97.93167 294.2551
7.521883 334.4131 97.63708 294.7681
7.531911 335.0014 97.27217 295.205
7.543389 335.5011 96.82795 295.6569
7.554985 335.8947 96.36443 296.1515
7.565383 336.0082 95.95307 296.5828
7.576701 336.0164 95.50925 297.1079
7.587805 335.8074 94.89951 297.8531
7.598721 335.6928 94.24332 298.9571
7.609888 335.5824 93.70148 300.3636
7.6215 335.5851 93.51512 301.6122
7.632492 335.5757 93.54591 302.8805
7.643154 335.465 93.54034 304.153
7.654932 335.409 93.42117 305.2662
7.665617 335.4886 93.32552 306.2827
7.676915 335.5623 93.3737 307.2417
7.687881 335.944 92.80596 308.3502
7.698996 336.3993 92.228 309.456
7.709774 336.9364 91.84739 310.3687
7.721643 337.4566 91.67091 311.072
7.732346 338.023 91.47919 311.7743
7.743266 338.6162 91.27136 312.5792
7.755075 339.1034 91.0472 313.4453
7.765512 339.3388 90.68485 314.4084
7.776418 339.4819 90.14552 315.412
7.787961 339.4164 89.38944 316.5623
7.798957 339.3273 88.68355 317.813
7.809674 339.1368 87.61105 319.4594
7.821228 338.8728 86.77814 321.4627
7.832393 338.5515 86.28525 323.5413
7.843305 337.9696 85.78773 326.076
7.854846 337.457 84.88682 328.8329
7.865528 337.4454 83.67328 331.3988
7.876666 337.9689 82.39844 333.4464
7.887958 337.9305 81.37334 335.0779
7.898736 337.5359 80.72975 335.8543
7.909997 337.3582 79.89296 336.6914
7.921398 337.5102 78.96201 337.5359
7.932283 337.6853 78.0732 338.7357
7.942967 337.9685 77.31382 340.0142
7.954744 338.3027 76.64896 341.2297
7.965482 338.7538 75.75916 342.7677
7.977072 339.0108 75.15668 343.9777
7.988273 339.0023 74.73588 344.9142
7.998744 339.0435 74.37499 345.6386
8.01002 339.246 74.04105 346.2713
8.021743 339.4313 73.74813 346.7315
8.032625 339.5239 73.51965 347.201
8.043455 339.5602 73.1459 347.7875
8.054918 339.6153 72.64854 348.3799
8.065478 339.7151 72.09297 349.0117
8.07674 339.7925 71.60191 349.6025
8.088057 339.6383 71.03948 350.1055
8.098843 339.3449 70.44269 350.5834
8.10994 338.9478 69.84286 351.0574
8.121677 338.6664 69.4183 351.5986
8.132236 338.355 69.12325 352.1805
8.143394 337.9981 68.65816 352.8578
8.15509 337.9314 68.22187 353.4765
8.165477 338.0966 68.04605 354.1009
8.176779 338.0784 68.02446 354.6543
8.188584 337.9721 68.05658 354.9476
8.198535 337.9113 68.08537 354.9371
8.210083 337.5018 68.06379 354.826
8.221605 337.5504 68.03773 354.5653
8.232291 337.9499 68.03666 354.3716
8.243284 338.3823 68.07206 354.2371
8.255008 338.7648 68.20421 354.0701
8.265588 339.3508 68.42461 353.8987
8.276398 340.1472 68.6841 353.8265
8.288032 340.9818 68.84454 353.778
8.299218 341.9014 69.04446 353.6249
8.309992 342.8171 69.21819 353.4635
8.321494 343.9441 69.39613 353.3721
8.332389 345.0282 69.60393 353.2848
8.34317 346.2206 69.84243 353.229
8.354552 347.6813 70.13245 353.3307
8.365468 349.2143 70.44218 353.5163
8.376676 351.0006 70.75058 353.8807
8.388147 353.0309 70.96801 354.3545
8.398565 355.5297 71.21711 354.9443
8.410296 357.7778 71.50774 355.5985
8.421391 359.9548 71.90713 356.1526
8.431911 1.40196 72.21735 356.6952
8.443139 2.562577 72.32359 357.1236
8.454915 3.553694 72.36275 357.5777
8.465691 4.723133 72.33118 358.0499
8.476577 6.002806 72.3875 358.561
8.488115 7.332697 72.5101 359.1063
8.499091 8.65882 72.71266 359.707
8.510371 10.09589 72.71345 0.2459972
8.521759 11.09494 72.7667 0.5502059
8.532067 11.63573 72.80729 0.7107914
8.543449 11.79568 72.82584 0.7979763
8.554844 11.31576 72.89585 0.7368388
8.56578 10.81869 72.93709 0.5410356
8.576402 10.48402 73.09768 0.3567275
8.58821 9.975576 73.18165 0.03187819
8.598726 9.387823 73.27322 359.7558
8.610239 8.892674 73.42036 359.4586
8.621836 8.395734 73.74157 359.1322
8.632254 8.01117 74.06663 358.8434
8.643586 7.390815 74.54634 358.6528
8.655024 6.404011 74.98066 358.5177
8.665205 5.267416 75.38181 358.4225
8.676904 4.091071 75.61103 358.3823
8.68799 3.409507 75.58123 358.3214
8.698745 2.783713 75.71703 358.8701
8.70983 3.194134 76.18347 358.9337
8.72185 3.300529 76.89309 359.3503
8.732011 2.682676 77.24813 359.4784
8.743132 1.715794 77.27786 359.0766
8.754994 1.005738 77.90896 358.6615
8.765828 0.1952078 78.886 358.3361
8.776672 359.6108 79.63438 357.7816
8.788118 359.1744 79.88543 357.1878
8.798878 359.6478 79.67295 356.6722
8.810087 0.8472143 79.54478 355.9472
8.821638 2.081751 79.26171 354.9307
8.832273 2.946414 79.24445 353.9737
8.843163 3.62893 79.0681 353.1531
8.855101 3.699936 78.66145 352.9828
8.865227 3.754574 78.20911 353.0653
8.876675 3.570423 77.85088 353.696
8.888473 3.388497 77.82746 354.5931
8.898849 3.239382 77.91045 355.2995
8.909853 2.739187 78.03572 356.0342
8.921825 2.08403 78.10348 356.4319
8.932333 1.420909 78.05909 356.585
8.943373 1.085925 77.96619 356.6191
8.954933 1.158084 78.02831 356.5377
8.965656 1.38545 78.19097 356.4583
8.976493 1.717076 78.36011 356.347
8.988579 1.981134 78.37034 356.2333
8.99883 2.117978 78.21664 356.1717
9.010101 2.163318 78.0335 356.172
9.021447 2.113038 77.82854 356.2629
9.032258 2.023391 77.69492 356.4216
9.043484 1.843761 77.59254 356.5946
9.055092 1.678869 77.46671 356.7056
9.065067 1.451568 77.39045 356.793
9.07668 1.180384 77.39185 356.8004
9.088077 0.8920566 77.40799 356.8303
9.098728 0.6171753 77.41007 356.9313
9.110099 0.4265821 77.41508 357.0962
9.121855 0.2823239 77.39352 357.3312
9.132283 0.1764208 77.37833 357.5596
9.143503 0.1211236 77.38453 357.7482
9.15503 0.1493353 77.44388 357.781
9.165328 0.1377791 77.55299 357.7095
9.17639 0.1928462 77.69556 357.4766
9.188586 0.2859265 77.85412 357.2065
9.198779 0.5743825 78.04603 356.8373
9.209947 0.9634013 78.18234 356.4006
9.221785 1.247503 78.17287 355.7727
9.232341 1.336858 78.10699 355.1118
9.243408 1.33464 78.01878 354.5085
9.255179 1.178319 77.9305 354.0024
9.265422 1.138471 77.95586 353.6527
9.27659 1.161336 78.00139 353.3587
9.28889 1.153847 77.97603 353.2021
9.298872 1.20872 77.84869 353.1209
9.309976 1.252198 77.66323 353.2292
9.322238 1.230159 77.48362 353.3553
9.332034 1.183471 77.31611 353.6288
9.343166 1.167502 77.09942 353.9163
9.354676 1.132976 76.86978 354.1273
9.365314 1.041816 76.56152 354.2942
9.376774 0.9417024 76.25237 354.4168
9.388814 0.8608375 75.97083 354.4628
9.399002 0.7826799 75.72626 354.4833
9.409912 0.6700212 75.49653 354.4293
9.421694 0.5381933 75.21496 354.3282
9.43231 0.3526253 74.90867 354.2461
9.44329 0.1848077 74.61816 354.1959
9.455131 0.07134839 74.36086 354.164
9.465735 359.9585 74.1552 354.1437
9.476436 359.8365 73.88911 354.134
9.487958 359.662 73.57603 354.1354
9.49892 359.5269 73.24028 354.1932
9.509923 359.4293 72.95164 354.2914
9.52179 359.3301 72.704 354.4449
9.532276 359.2282 72.45746 354.5884
9.543495 359.0721 72.15941 354.7987
9.555164 358.8745 71.81548 354.9994
9.565519 358.7963 71.52656 355.2414
9.580334 358.7939 71.31194 355.494
9.588785 358.7275 71.13137 355.6873
9.598895 358.6332 70.88896 355.8471
9.610286 358.528 70.637 355.9583
9.621579 358.4178 70.43286 356.037
9.632458 358.4257 70.27924 356.1377
9.645144 358.4642 70.18494 356.2238
9.654919 358.489 70.14539 356.2731
9.666194 358.4624 70.07136 356.3036
9.677234 358.4003 70.02451 356.2747
9.688991 358.3229 70.00037 356.2525
9.699223 358.2761 70.05159 356.1963
9.710258 358.2778 70.10736 356.1462
9.722274 358.3032 70.14205 356.0971
9.732509 358.3242 70.15079 356.0355
9.74376 358.3382 70.16785 355.9718
9.755216 358.3348 70.20293 355.9144
9.766309 358.3355 70.26863 355.8534
9.776786 358.3242 70.32887 355.8224
9.788614 358.3046 70.4225 355.7863
9.799341 358.2831 70.51971 355.7281
9.810402 358.2807 70.60801 355.6874
9.822274 358.2585 70.70155 355.6576
9.832847 358.2411 70.72063 355.6348
9.843814 358.2628 70.74915 355.6346
9.855873 358.2707 70.75469 355.6461
9.865807 358.2892 70.74561 355.6591
9.876951 358.2956 70.72583 355.674
9.888655 358.2913 70.70708 355.6875
9.89927 358.2948 70.70546 355.722
9.911099 358.3137 70.70518 355.7434
9.922029 358.3366 70.69729 355.7701
9.93272 358.3372 70.66985 355.7851
9.944068 358.29 70.64189 355.7818
9.954683 358.2673 70.62259 355.8007
9.965686 358.2747 70.57755 355.8197
9.976875 358.2831 70.55099 355.8448
9.988592 358.2838 70.5127 355.8419
9.998734 358.2617 70.48483 355.8147
10.01002 358.2426 70.44386 355.797
10.02158 358.2424 70.41079 355.7776
10.03211 358.2351 70.40611 355.7654
10.04296 358.1773 70.405 355.7366
10.05502 358.1239 70.42567 355.7021
10.06575 358.1011 70.42309 355.6857
10.0766 358.1094 70.41498 355.6602
10.08846 358.1189 70.3887 355.6614
10.09863 358.1318 70.36084 355.6498
10.11003 358.1034 70.33583 355.6502
10.12162 358.099 70.29934 355.6487
10.13218 358.0941 70.26786 355.6454
10.14305 358.0769 70.24292 355.6577
10.15505 358.0493 70.2134 355.6375
10.16627 358.0398 70.21503 355.6303
10.17639 358.0273 70.19695 355.6064
10.18864 357.9908 70.16402 355.6044
10.19888 357.9566 70.13901 355.6015
10.20969 357.938 70.12717 355.5972
10.22166 357.9095 70.09939 355.5994
10.23237 357.8858 70.05918 355.6007
10.24343 357.8504 70.01852 355.6044
10.25521 357.7936 69.99684 355.6067
10.26539 357.7785 69.98974 355.5956
10.27643 357.7579 69.98518 355.5708
10.28844 357.7316 69.96214 355.5559
10.29889 357.6906 69.93664 355.5367
10.31029 357.677 69.90151 355.5379
10.32191 357.6562 69.90132 355.5209
10.33217 357.634 69.86069 355.5051
10.34303 357.6059 69.87008 355.4713
10.35508 357.5708 69.85571 355.4475
10.36606 357.5523 69.83739 355.4355
10.37648 357.5451 69.83733 355.436
10.38848 357.5395 69.82974 355.4455
10.39894 357.5457 69.82748 355.4415
10.40984 357.5479 69.80355 355.4481
10.42141 357.5405 69.78846 355.4299
10.4323 357.5293 69.77894 355.4142
10.44322 357.525 69.75104 355.3953
10.45551 357.5042 69.72391 355.4013
10.46544 357.4897 69.71597 355.391
10.47703 357.4857 69.72962 355.3886
10.48813 357.4725 69.74218 355.3721
10.49854 357.4546 69.75225 355.3602
10.51007 357.4443 69.7536 355.3631
10.52462 357.4644 69.75631 355.335
10.53213 357.4476 69.75575 355.299
10.54315 357.4391 69.7521 355.2729
10.55493 357.4476 69.73888 355.263
10.56554 357.4383 69.72019 355.239
10.57669 357.4399 69.72206 355.2342
10.58836 357.4242 69.73675 355.2161
10.59911 357.3975 69.74047 355.2014
10.61017 357.3818 69.74249 355.2052
10.62215 357.3713 69.74208 355.2251
10.63211 357.3725 69.71341 355.2557
10.64315 357.3749 69.71721 355.2603
10.65428 357.3662 69.72145 355.251
10.66533 357.3645 69.71758 355.2645
10.67642 357.3399 69.69331 355.2597
10.68837 357.3391 69.67036 355.2442
10.69876 357.3378 69.68533 355.2466
10.70973 357.3387 69.70085 355.2242
10.72167 357.3266 69.71751 355.2045
10.73235 357.3286 69.7135 355.2126
10.74357 357.3356 69.68347 355.2432
10.75488 357.3419 69.67175 355.2569
10.76553 357.3607 69.67678 355.2706
10.77632 357.3854 69.67989 355.2536
10.78904 357.3913 69.68288 355.2331
10.79879 357.3949 69.67701 355.188
10.80993 357.41 69.69696 355.1442
10.82166 357.3815 69.70078 355.1328
10.83204 357.3926 69.69813 355.1344
10.84336 357.4044 69.69887 355.1213
10.85509 357.4042 69.68582 355.102
10.86576 357.4124 69.67873 355.0925
10.87652 357.4196 69.67533 355.0695
10.88825 357.4551 69.6645 355.0976
10.89876 357.4516 69.64421 355.107
10.90973 357.4543 69.631 355.1177
10.9215 357.4626 69.62154 355.1469
10.93209 357.4616 69.60628 355.165
10.94371 357.4842 69.58679 355.1924
10.95479 357.502 69.57135 355.2134
10.96553 357.5149 69.56013 355.2247
10.97633 357.5346 69.51525 355.2108
10.98883 357.5396 69.48741 355.2185
10.99911 357.5407 69.46284 355.2074
11.01036 357.5289 69.45959 355.1892
11.02196 357.5091 69.44858 355.1808
11.03204 357.5044 69.44572 355.1967
11.04317 357.4909 69.43893 355.1955
11.05485 357.4869 69.43265 355.1996
11.06542 357.4724 69.44414 355.2074
11.07659 357.4742 69.44298 355.2167
11.08823 357.4796 69.41972 355.2096
11.09878 357.4826 69.39948 355.2186
11.11009 357.4656 69.37408 355.2024
11.12166 357.4755 69.36243 355.1888
11.13216 357.4762 69.36624 355.175
11.14309 357.4767 69.35226 355.1755
11.15494 357.487 69.35419 355.1651
11.16556 357.4745 69.33175 355.1384
11.17667 357.487 69.32996 355.149
11.18832 357.4831 69.31502 355.159
11.19898 357.4893 69.31561 355.1691
11.21033 357.4782 69.30869 355.1775
11.22149 357.4956 69.30641 355.1819
11.23212 357.5089 69.2882 355.1856
11.2432 357.5156 69.26279 355.2029
11.25506 357.5208 69.22569 355.2152
11.26572 357.5241 69.21481 355.2273
11.27635 357.5304 69.17233 355.2425
11.28844 357.5464 69.15189 355.2525
11.29882 357.5706 69.14146 355.2704
11.30989 357.5694 69.1327 355.2761
11.32136 357.5826 69.1291 355.2762
11.33286 357.6109 69.1255 355.2762
11.34377 357.6216 69.13253 355.2836
11.35617 357.6237 69.13336 355.2727
11.36539 357.6502 69.11853 355.267
11.3773 357.6494 69.10952 355.2641
11.38848 357.6618 69.12207 355.2594
11.39907 357.6484 69.1068 355.2399
11.4104 357.6645 69.10109 355.246
11.42225 357.6647 69.0934 355.2686
11.43238 357.6805 69.09718 355.282
11.44363 357.6805 69.08046 355.3004
11.45591 357.692 69.068 355.3304
11.46615 357.7125 69.08162 355.3534
11.47644 357.7284 69.07094 355.3803
11.48823 357.7418 69.04242 355.407
11.49863 357.7578 69.00992 355.4059
11.51036 357.766 68.98796 355.4235
11.52179 357.7753 68.96455 355.441
11.53216 357.7948 68.93604 355.4609
11.54369 357.8059 68.91477 355.4956
11.55533 357.8298 68.88225 355.5106
11.56578 357.8635 68.86047 355.5335
11.57648 357.8654 68.83775 355.5514
11.58798 357.8709 68.80934 355.5759
11.59887 357.8959 68.77186 355.5918
11.60993 357.904 68.73829 355.6052
11.62189 357.8897 68.72504 355.5988
11.63191 357.9141 68.72207 355.6126
11.64323 357.9182 68.75072 355.6219
11.65422 357.9293 68.7484 355.6245
11.66538 357.9413 68.74316 355.6223
11.67676 357.9513 68.73277 355.6342
11.68804 357.9545 68.73657 355.6384
11.69907 357.9547 68.72113 355.6554
11.71018 357.9745 68.71218 355.6657
11.72185 357.9996 68.69717 355.6899
11.73211 358.0173 68.69208 355.6954
11.74391 358.0119 68.68253 355.7051
11.75447 358.0255 68.68232 355.6871
11.76559 358.0132 68.65092 355.6927
11.77659 358.0233 68.64664 355.6914
11.78836 358.0174 68.63351 355.6912
11.7986 358.0124 68.6108 355.7209
11.80978 358.0158 68.61129 355.7198
11.82073 358.0226 68.61263 355.7361
11.8319 358.0251 68.58811 355.7542
11.84326 358.0255 68.59177 355.7551
11.85443 358.0226 68.5715 355.7655
11.86548 358.0285 68.57619 355.7599
11.87685 358.0403 68.55879 355.7669
11.88801 358.0493 68.56448 355.754
11.8986 358.0437 68.56865 355.7621
11.91004 358.0343 68.57384 355.7535
11.92105 358.044 68.57355 355.7581
11.93217 358.0515 68.57958 355.7595
11.94362 358.0387 68.56583 355.7585
11.955 358.0302 68.5757 355.7615
11.96532 358.0151 68.56947 355.7747
11.97641 358.0214 68.55349 355.7913
11.98815 358.0435 68.55421 355.814
11.99868 358.0464 68.54881 355.8214
12.00991 358.0542 68.54189 355.8274
12.02208 358.0703 68.54118 355.8275
12.03259 358.0735 68.52763 355.8322
12.04335 358.0715 68.51524 355.8398
12.05424 358.0764 68.49625 355.8421
12.06588 358.0706 68.48541 355.8542
12.07661 358.0627 68.47009 355.8503
12.08803 358.0701 68.47857 355.8489
12.099 358.0662 68.47704 355.8491
12.1101 358.0415 68.46572 355.8642
12.12239 358.0372 68.46751 355.8511
12.13226 358.0223 68.46361 355.8675
12.14316 358.0169 68.47525 355.8553
12.15444 358.0107 68.47543 355.8602
12.16549 357.9992 68.47933 355.8811
12.17652 357.9959 68.47606 355.8885
12.18852 357.9989 68.46455 355.9013
12.19863 358.0089 68.46276 355.9065
12.20992 358.0018 68.4278 355.9058
12.22142 357.9916 68.42114 355.9063
12.2323 357.9918 68.41476 355.9164
12.24323 357.9795 68.40038 355.9286
12.25434 357.9687 68.39903 355.9478
12.26568 357.951 68.38554 355.9383
12.27669 357.942 68.37845 355.9527
12.28769 357.9407 68.38758 355.9648
12.29846 357.9286 68.39095 355.9655
12.30973 357.9285 68.38848 355.9738
12.32159 357.9209 68.38784 355.975
12.33183 357.9288 68.38909 355.9788
12.34344 357.9331 68.39716 355.9785
12.35437 357.9054 68.38756 355.9745
12.36547 357.9034 68.40466 355.9578
12.37632 357.8813 68.41148 355.9778
12.38785 357.8885 68.42146 355.9723
12.39929 357.8614 68.43452 355.9764
12.41 357.8518 68.45102 355.973
12.42185 357.8354 68.44123 355.9738
12.43205 357.853 68.44686 355.9741
12.4436 357.8474 68.46293 355.9754
12.45454 357.8475 68.45993 355.9767
12.46533 357.8338 68.47684 355.9578
12.47643 357.8301 68.4899 355.932
12.48768 357.831 68.51055 355.93
12.49909 357.8304 68.50097 355.9153
12.50986 357.8234 68.4992 355.9112
12.52113 357.8054 68.49207 355.9132
12.5321 357.7975 68.49554 355.9165
12.54352 357.7817 68.49344 355.9065
12.55414 357.768 68.49831 355.9138
12.56538 357.7603 68.49368 355.9361
12.57658 357.7442 68.4807 355.9435
12.58758 357.7389 68.49212 355.9579
12.59854 357.7229 68.49063 355.9688
12.6098 357.7258 68.50344 355.9655
12.62124 357.7128 68.50191 355.956
12.63237 357.6931 68.49693 355.9481
12.64337 357.707 68.50031 355.9368
12.65482 357.6918 68.50697 355.9263
12.6656 357.6841 68.5082 355.9098
12.67644 357.6673 68.51707 355.9072
12.68783 357.6622 68.52498 355.9068
12.69867 357.6419 68.5209 355.9276
12.70994 357.6436 68.51629 355.9438
12.72271 357.6323 68.52865 355.9403
12.73209 357.6315 68.55106 355.937
12.74338 357.6133 68.54612 355.9306
12.75451 357.6136 68.54501 355.912
12.76535 357.6075 68.56691 355.8934
12.77662 357.5896 68.57896 355.8889
12.78758 357.5746 68.59971 355.8765
12.79897 357.5733 68.60287 355.8867
12.81004 357.5537 68.6114 355.884
12.82098 357.5407 68.59048 355.897
12.83225 357.5194 68.60432 355.9139
12.84362 357.5166 68.59558 355.9197
12.8551 357.5035 68.60229 355.9405
12.86558 357.5119 68.61789 355.9516
12.89892 357.4949 68.61359 355.9536
12.90776 357.2368 68.67548 355.893
12.91152 357.2192 68.67561 355.9053
12.91601 357.2056 68.6768 355.9191
12.92469 357.1926 68.68073 355.921
12.93556 357.1823 68.68259 355.9204
12.94691 357.1662 68.69566 355.918
12.9584 357.1475 68.71795 355.91
12.96895 357.1624 68.7696 355.8725
12.98051 357.1494 68.79548 355.8424
12.99135 357.1344 68.84562 355.8045
13.00256 357.1268 68.87568 355.7486
13.01351 357.0971 68.90145 355.7071
13.02429 357.0926 68.95695 355.6871
13.03572 357.0719 68.98488 355.6515
13.04694 357.075 69.00095 355.6298
13.05792 357.0619 69.01336 355.631
13.06889 357.0661 69.02623 355.6206
13.08052 357.0768 69.05006 355.6386
13.09086 357.0862 69.0481 355.6706
13.10201 357.0825 69.08593 355.6829
13.11377 357.0809 69.08132 355.694
13.12442 357.0626 69.11755 355.7012
13.13562 357.0726 69.12118 355.7158
13.14722 357.0753 69.13222 355.7196
13.15818 357.092 69.11505 355.7373
13.1688 357.1058 69.10503 355.7531
13.17964 357.112 69.08675 355.7671
13.19121 357.1083 69.07981 355.7758
13.20207 357.1316 69.07958 355.7719
13.2144 357.1129 69.07903 355.7788
13.22419 357.1153 69.09695 355.7962
13.23593 357.1101 69.11921 355.7826
13.24705 357.1051 69.14502 355.7702
13.25767 357.108 69.17066 355.7424
13.26835 357.1152 69.19653 355.7306
13.28005 357.1098 69.22253 355.6688
13.29102 357.0974 69.26201 355.6362
13.3021 357.0992 69.29415 355.6088
13.31363 357.0896 69.34595 355.5751
13.32485 357.0749 69.3784 355.5498
13.33554 357.0707 69.41314 355.5256
13.34653 357.0802 69.44482 355.5095
13.35761 357.0641 69.48391 355.4858
13.36948 357.0316 69.51451 355.458
13.38117 357.0191 69.5461 355.4435
13.39212 356.9871 69.5658 355.4479
13.40351 356.9869 69.56908 355.4297
13.41562 356.9677 69.58238 355.4314
13.42699 356.954 69.60895 355.4299
13.43799 356.9495 69.60139 355.4247
13.44942 356.9405 69.61639 355.42
13.46122 356.9363 69.62615 355.4127
13.47206 356.9411 69.63818 355.4009
13.48328 356.9362 69.6558 355.4024
13.49526 356.9259 69.67936 355.3977
13.50597 356.9112 69.67094 355.3962
13.51753 356.8982 69.68206 355.4212
13.52909 356.9044 69.67347 355.4407
13.54012 356.8871 69.67342 355.4479
13.5517 356.8983 69.6843 355.4566
13.56272 356.8978 69.69346 355.4492
13.5742 356.9109 69.70837 355.4371
13.58475 356.8923 69.72421 355.4242
13.59635 356.8956 69.75002 355.4041
13.60833 356.8889 69.77439 355.3783
13.61812 356.8718 69.79787 355.3479
13.62919 356.8626 69.80328 355.3295
13.64073 356.8586 69.82777 355.2966
13.65174 356.8448 69.8435 355.2847
13.66248 356.837 69.8412 355.2668
13.67363 356.8358 69.83898 355.2598
13.68517 356.8233 69.85316 355.251
13.69639 356.8218 69.83001 355.2528
13.70726 356.8096 69.81144 355.2314
13.71881 356.8059 69.81036 355.2311
13.72912 356.8087 69.81787 355.2339
13.74058 356.7845 69.827 355.2368
13.75254 356.7694 69.83086 355.2281
13.76241 356.7524 69.83405 355.2302
13.77389 356.7412 69.82484 355.2221
13.78491 356.7327 69.83442 355.2179
13.79599 356.7256 69.82196 355.2188
13.80726 356.7072 69.81594 355.2164
13.81831 356.7012 69.82315 355.218
13.82941 356.6955 69.81733 355.216
13.84074 356.6847 69.80602 355.2047
13.85122 356.679 69.77302 355.2018
13.86288 356.6721 69.78117 355.1943
13.87352 356.6651 69.77368 355.1833
13.88474 356.6595 69.78493 355.1829
13.89561 356.6551 69.77985 355.1546
13.90718 356.6612 69.77984 355.1272
13.91772 356.664 69.76862 355.11
13.92936 356.6691 69.78339 355.0955
13.94039 356.6615 69.78148 355.0809
13.95153 356.6532 69.78989 355.0602
13.96246 356.6508 69.80029 355.0529
13.97377 356.6403 69.80373 355.0302
13.9844 356.6298 69.80241 355.0209
13.99603 356.6526 69.79365 355.0099
14.00659 356.6401 69.77934 354.9891
14.01791 356.6562 69.7656 354.9992
14.02907 356.6567 69.75609 354.9928
14.04005 356.6519 69.75019 354.997
14.05151 356.6546 69.72517 355.018
14.06261 356.6531 69.71413 355.0145
14.07391 356.6663 69.69446 355.0272
14.08485 356.6682 69.68269 355.0414
14.09608 356.6693 69.65553 355.0421
14.10692 356.6768 69.65615 355.0439
14.11828 356.6785 69.64576 355.044
14.12928 356.6791 69.64002 355.053
14.14026 356.7046 69.62751 355.0627
14.1526 356.7299 69.61633 355.0627
14.16214 356.7403 69.60368 355.0548
14.17357 356.7417 69.61521 355.0377
14.18501 356.7596 69.61857 355.0367
14.196 356.7656 69.63493 355.0235
14.20669 356.7746 69.63098 355.036
14.21799 356.785 69.63596 355.0402
14.22873 356.7838 69.63406 355.0549
14.24039 356.8102 69.61262 355.0757
14.25115 356.8234 69.60774 355.1033
14.26238 356.8409 69.60093 355.1264
14.27343 356.8514 69.58742 355.1507
14.28506 356.879 69.569 355.1761
14.2958 356.9063 69.54424 355.2087
14.30708 356.9353 69.5301 355.2383
14.31861 356.9518 69.49551 355.2525
14.32923 356.9757 69.45576 355.2721
14.34046 357.0042 69.41161 355.311
14.35158 357.0299 69.38388 355.3257
14.36285 357.0618 69.34626 355.3403
14.37378 357.0808 69.34119 355.3551
14.38482 357.0968 69.29663 355.3573
14.39617 357.1005 69.27752 355.3662
14.40782 357.132 69.26701 355.3701
14.418 357.1304 69.25262 355.3772
14.4292 357.1648 69.25389 355.3659
14.44051 357.1624 69.25947 355.3629
14.45198 357.173 69.27127 355.3516
14.46299 357.1808 69.28782 355.3351
14.47411 357.187 69.28198 355.3317
14.48514 357.1862 69.27206 355.3055
14.49647 357.1999 69.25681 355.3109
14.50758 357.2087 69.25327 355.3164
14.51835 357.2145 69.22609 355.3327
14.52958 357.2285 69.20607 355.3472
14.54058 357.2375 69.1897 355.378
14.55171 357.2556 69.18007 355.3951
14.56302 357.2589 69.16065 355.4205
14.57383 357.2647 69.12542 355.4344
14.58458 357.2763 69.0934 355.4572
14.59549 357.2808 69.05428 355.4738
14.60692 357.2754 69.02083 355.4922
14.61814 357.2694 69.00702 355.4916
14.62901 357.2693 68.98718 355.5063
14.64114 357.2516 69.0213 355.4891
14.65164 357.2366 69.05313 355.4571
14.66291 357.2255 69.09948 355.4207
14.67397 357.1975 69.13625 355.3806
14.68493 357.1932 69.16291 355.3467
14.69658 357.195 69.1674 355.2854
14.70728 357.2007 69.18816 355.2657
14.71832 357.2143 69.19695 355.2766
14.72946 357.2277 69.1904 355.262
14.74043 357.2384 69.17626 355.2664
14.75151 357.2303 69.17804 355.2701
14.76244 357.2401 69.16737 355.2745
14.77426 357.224 69.16588 355.2975
14.7847 357.2282 69.16819 355.3096
14.79614 357.2188 69.14796 355.3281
14.80723 357.2173 69.12725 355.3602
14.81807 357.2258 69.11546 355.3676
14.82927 357.2274 69.10808 355.3831
14.84066 357.2541 69.10221 355.3822
14.85151 357.2618 69.08277 355.392
14.86325 357.2771 69.05804 355.3807
14.87362 357.2959 69.02146 355.3892
14.88489 357.3003 69.00765 355.3807
14.89621 357.297 68.99045 355.3755
14.90701 357.2831 68.96617 355.3679
14.91786 357.2967 68.96194 355.365
14.9294 357.3047 68.95612 355.3597
14.94004 357.3015 68.93026 355.3659
14.95132 357.3041 68.91872 355.3683
14.96252 357.3381 68.8989 355.3716
14.97366 357.3354 68.88413 355.373
14.98447 357.3503 68.87708 355.375
14.99581 357.3681 68.86646 355.3646
15.0069 357.3747 68.86861 355.3584
15.01799 357.3877 68.85343 355.3521
15.02902 357.3904 68.85873 355.339
15.04031 357.4132 68.85182 355.3179
15.05153 357.4095 68.85746 355.3159
15.06269 357.4213 68.87861 355.2884
15.07386 357.4395 68.88738 355.276
15.08471 357.4451 68.88788 355.2657
15.09582 357.4568 68.90428 355.2456
15.10726 357.4578 68.89611 355.2535
15.11816 357.47 68.88708 355.2448
15.1294 357.4693 68.88485 355.2469
15.14102 357.482 68.8678 355.2657
15.15189 357.4886 68.86305 355.2661
15.1628 357.4986 68.84679 355.2932
15.17394 357.5278 68.8105 355.3173
15.1852 357.5334 68.78445 355.3321
15.19573 357.5531 68.77068 355.3392
15.20686 357.5771 68.75529 355.3512
15.21789 357.5797 68.7383 355.3625
15.22911 357.5703 68.72788 355.373
15.2404 357.5639 68.72208 355.3705
15.25103 357.5819 68.72285 355.3831
15.26233 357.5927 68.72021 355.3784
15.27358 357.5929 68.70231 355.3888
15.28447 357.5922 68.70621 355.3841
15.29571 357.5924 68.7127 355.3835
15.30682 357.5915 68.71163 355.3961
15.31784 357.5956 68.71147 355.4096
15.32923 357.5745 68.69859 355.4032
15.34012 357.588 68.69845 355.4152
15.35118 357.5866 68.69105 355.4101
15.36267 357.5901 68.6862 355.4099
15.37332 357.593 68.68565 355.4063
15.38951 357.582 68.68728 355.4018
15.39605 357.5765 68.68562 355.4036
15.40681 357.558 68.69377 355.4118
15.41789 357.5496 68.71001 355.414
15.42904 357.5406 68.70716 355.4208
15.44181 357.5337 68.70635 355.4229
15.45417 357.5201 68.7099 355.4096
15.46196 357.5156 68.72246 355.4196
15.47219 357.4971 68.73162 355.4193
15.48347 357.4794 68.7199 355.4237
15.49478 357.4706 68.73483 355.4028
15.51543 0 0 0
