時間[s] x軸周り[deg] y軸周り[deg] z軸周り[deg]
0 0 0 0
0.02 0 0 0
0.05333333 0.8251052 1.4679 0.6287035
0.08666666 359.8232 2.51774 359.675
0.12 359.7582 2.703491 359.6101
0.1490671 359.4282 3.925307 359.8185
0.1824004 359.334 5.365975 0.110152
0.2085941 359.3161 6.721014 0.6512521
0.2366827 359.2789 8.243634 1.012843
0.2649794 359.1925 9.392641 1.201234
0.2983128 359.1568 11.19281 1.292905
0.3284841 359.199 12.69958 1.215675
0.3618175 359.1488 13.59516 1.109215
0.3902567 359.3624 13.81136 0.891353
0.4178432 359.4607 13.62513 0.8308271
0.4471259 359.8087 13.13211 0.8150989
0.4742045 0.1375781 12.73337 0.7813563
0.5026983 0.512024 12.05232 0.6880051
0.5318168 0.6623698 11.44147 0.6070872
0.5594877 0.8485497 10.57412 0.4784164
0.5872951 1.240625 9.567064 0.3213689
0.6145498 1.457552 8.880258 0.2107222
0.6460841 1.661253 7.963833 0.003044022
0.6729411 1.762293 7.426976 359.8762
0.7014266 2.051953 6.803841 359.7103
0.7279424 2.321991 6.44736 359.602
0.7560113 3.145141 6.094047 359.6904
0.784114 3.940635 5.963891 359.7229
0.8114323 5.630138 5.718079 359.7318
0.8388071 6.712041 5.60146 359.9543
0.8683413 7.330482 5.51341 0.1113332
0.8993495 8.219406 5.211191 359.9221
0.930692 9.040017 4.925531 0.1385786
0.9592945 9.482629 4.77673 0.1868302
0.9861856 10.00732 4.488503 0.02520576
1.016506 10.32926 4.289827 359.9862
1.046706 10.84399 3.975355 359.9459
1.074284 11.48996 3.703123 359.9051
1.103209 12.05907 3.590297 359.9499
1.135554 12.79494 3.590877 0.1116889
1.16313 13.16572 3.783458 0.3405373
1.196463 13.26839 4.049661 0.5064206
1.229777 13.07106 4.396351 0.6721634
1.257554 12.92739 4.685694 0.5674443
1.287855 12.97032 4.885023 0.4839185
1.315376 12.87185 4.838468 0.5518178
1.343136 12.80729 4.761798 0.5153998
1.376279 12.95888 4.650316 0.4289016
1.405258 13.29322 4.493595 0.4880544
1.435069 13.15589 4.412204 0.4731058
1.466794 12.83556 4.378802 0.3844377
1.498573 12.79752 4.40303 0.3643177
1.526904 12.81744 4.490059 0.5293965
1.555987 12.9165 4.62873 0.6661826
1.584118 13.32912 4.904592 0.8614395
1.611003 13.58636 5.138039 0.9016361
1.638635 14.11485 5.484825 0.9501325
1.666841 14.46538 5.723006 0.9853147
1.695046 14.76517 6.139124 0.8641171
1.728379 14.85511 6.436365 0.7023935
1.756974 14.93945 6.898423 0.3801565
1.784838 14.98844 7.374783 0.01731141
1.815135 14.76995 7.736696 359.7447
1.844879 14.37148 8.112821 359.388
1.873993 14.00532 8.447695 358.9127
1.902849 13.56699 8.973992 358.4975
1.930989 13.49739 9.291219 358.6111
1.957333 13.50342 9.57991 358.8756
1.990666 13.43611 9.687448 358.956
2.022564 13.52137 10.07154 359.1179
2.050963 13.69551 10.33704 359.181
2.078761 13.4543 10.55647 359.0886
2.108278 13.49822 10.57629 359.0713
2.136292 13.51499 10.45564 359.1492
2.164143 13.6236 10.31369 359.2039
2.193901 13.87833 9.995821 359.2952
2.222949 14.05585 9.739149 359.4536
2.252058 13.64655 9.711579 359.7244
2.279243 13.23889 9.937759 359.9564
2.306452 13.22291 10.16112 0.4052903
2.339785 12.83569 10.55521 1.093681
2.369911 12.38618 10.76837 1.463945
2.399266 12.2116 10.6209 1.525009
2.428089 11.81926 10.16929 0.9936124
2.460743 10.99601 9.49111 0.4128952
2.488582 9.850817 8.800735 359.8809
2.519233 8.953089 8.419739 359.5038
2.551847 7.598142 7.854447 359.0743
2.580261 6.490987 7.431696 358.4508
2.608853 5.808119 7.091573 358.2351
2.635306 4.607645 6.613629 358.3771
2.667139 4.022301 6.351766 358.2057
2.696904 3.655199 5.923461 358.5811
2.725935 2.892852 5.440464 358.9326
2.754277 1.976439 5.082124 359.095
2.782899 1.386888 4.74871 359.1724
2.810612 0.3524794 4.017885 359.3068
2.841353 359.8161 3.562374 359.4435
2.87064 359.5885 2.776869 359.6363
2.901524 359.5962 2.225681 359.8747
2.931413 359.5869 1.489688 0.2366669
2.964746 359.3422 0.9211724 0.5186757
2.994488 357.5994 359.6324 0.2260402
3.025881 356.2064 358.7383 359.8062
3.053766 354.7075 357.2636 359.2816
3.083095 353.5722 355.3545 359.1147
3.110443 352.911 353.9856 358.9873
3.139682 352.1833 351.9337 358.6949
3.173015 351.8503 350.1735 358.4037
3.201326 351.831 347.2912 357.8695
3.230049 351.9001 345.881 357.7334
3.258184 352.1776 343.8563 357.515
3.285755 352.2508 342.8481 357.3985
3.313545 352.4479 341.5712 357.4496
3.342218 352.4663 340.6989 357.5746
3.371875 352.1946 339.6907 357.6082
3.404793 352.0305 339.0577 357.5342
3.432809 351.9178 338.1089 357.4325
3.461649 351.885 336.9323 357.5504
3.489856 351.5722 336.1193 357.5452
3.517913 351.113 335.3799 357.5055
3.546348 350.8264 334.7035 357.342
3.577335 350.8894 334.4163 357.1674
3.604266 351.2928 334.0898 356.7724
3.630904 351.6777 333.9998 356.4639
3.663403 352.1672 334.0416 356.1592
3.693359 352.9307 334.2917 355.9102
3.723417 353.7783 334.8611 355.632
3.752104 355.4138 336.3499 355.1818
3.779694 357.954 339.0317 354.9401
3.806812 0.4923887 341.7605 354.92
3.835007 3.341298 345.062 355.1563
3.864523 6.915097 350.3098 356.9135
3.893044 8.715447 353.5142 358.4808
3.926377 11.59798 358.0821 0.02793579
3.957546 14.22729 2.74733 1.658056
3.985755 16.09033 6.358573 2.848661
4.013814 17.0276 8.403586 3.991163
4.042783 17.73314 10.50927 5.404948
4.07228 18.04382 11.14392 5.930437
4.100556 18.6633 11.17973 5.865122
4.131305 19.03037 10.84094 5.504083
4.163185 19.19728 9.944727 4.903549
4.192456 19.26993 8.956927 4.031079
4.222079 19.42558 8.188482 3.290399
4.250006 19.5121 7.793039 2.982732
4.278726 19.26017 7.541251 2.734403
4.310487 19.06982 7.641893 2.597712
4.336643 19.13396 7.933818 2.633411
4.369977 19.17567 8.271525 2.823446
4.398543 19.3168 8.72647 2.997812
4.431877 19.46741 9.1469 3.123614
4.460592 19.69689 9.676693 3.344
4.488419 19.82656 10.11301 3.641577
4.521752 19.6572 10.48286 3.826774
4.549041 19.38103 10.75668 3.866919
4.576619 19.16484 10.93042 3.808307
4.604953 18.78313 11.11558 3.623534
4.632422 18.59937 11.24877 3.529099
4.660729 18.28213 11.48282 3.395921
4.688931 18.04113 11.69567 3.253866
4.717264 17.73228 12.01626 3.102651
4.745065 17.6468 12.23557 3.088537
4.773685 17.44399 12.62126 3.105032
4.802336 17.30336 12.92182 3.091467
4.835411 16.99001 13.22375 2.979835
4.867015 16.72059 13.35243 3.015904
4.89548 16.08514 13.48171 2.893669
4.928813 15.66747 13.56364 2.591488
4.957231 15.42707 13.62043 2.455532
4.985708 15.5278 13.6272 2.574591
5.014536 15.88762 13.53234 2.846421
5.042748 16.07155 13.51625 2.96282
5.071551 15.971 13.4492 2.750769
5.103202 15.88394 13.28074 2.729706
5.131486 15.79999 13.05379 2.778606
5.163585 16.25744 12.82046 2.58491
5.194201 16.9921 12.58238 2.300249
5.226681 17.1706 12.40416 2.2937
5.255506 16.92912 12.18042 2.332326
5.28572 16.70636 12.08054 2.295199
5.314439 16.28041 11.96014 2.191768
5.34421 16.1284 11.83127 2.116174
5.37563 16.12519 11.70554 2.140471
5.404568 16.27474 11.67641 2.084452
5.43316 16.58759 11.69351 2.139854
5.460844 16.86769 11.78259 2.276994
5.494177 17.03596 11.92094 2.528847
5.522192 17.03502 11.88878 2.687968
5.551542 17.21809 11.81507 2.838747
5.580403 17.40995 11.74669 3.028598
5.608645 17.34675 11.52221 3.063098
5.636663 17.41776 11.34849 3.038103
5.668656 17.66461 11.10266 3.004961
5.698348 17.56726 10.92767 2.995313
5.731681 17.32742 10.85647 2.921766
5.760533 17.16894 10.706 2.839374
5.788945 17.43963 10.6237 2.862193
5.822278 17.69591 10.6473 2.726929
5.855611 17.88131 10.65596 2.675556
5.88385 17.98013 10.62107 2.731263
5.911525 18.54046 10.55492 2.672861
5.93878 18.83599 10.37035 2.636492
5.967037 19.34572 10.00465 2.695198
5.994079 19.7702 9.736871 2.634416
6.021027 20.47587 9.402212 2.568464
6.048845 21.0815 9.229396 2.600546
6.077108 22.04234 9.146593 2.672097
6.107439 22.81901 9.091015 2.707842
6.139663 23.55824 9.088293 2.890342
6.172997 23.53516 9.073743 2.944757
6.19978 23.83412 8.891194 2.758246
6.230573 24.11311 8.808638 2.667064
6.261757 24.19022 8.781514 2.563663
6.290535 24.05531 8.669641 2.290812
6.321211 24.07698 8.498446 2.078056
6.354334 24.11209 8.410601 2.054973
6.385564 24.05507 8.320959 1.843211
6.418897 23.84485 8.279528 1.384441
6.446259 23.97533 8.277001 1.134144
6.473968 23.87718 8.151046 1.064481
6.502019 23.53066 8.144157 0.9826968
6.533119 23.29764 8.202518 0.5697445
6.561122 23.14741 8.168221 0.327174
6.59018 22.30511 7.987729 0.1731829
6.621325 22.69061 8.010488 359.8601
6.649872 23.13676 7.911883 0.1646372
6.678576 23.39144 7.414708 0.9765998
6.707575 23.03824 7.36855 0.8034689
6.739612 23.73653 7.50417 0.7680991
6.768758 24.22889 7.586157 1.557645
6.798459 24.15541 7.360298 2.029665
6.825983 24.11094 7.374905 2.083433
6.855214 24.1326 7.350712 2.161139
6.883224 23.86115 7.038258 2.380391
6.91553 23.73687 6.757907 2.467742
6.944863 23.18863 6.183502 2.188677
6.974749 23.14074 5.352758 1.743373
7.007084 23.2085 4.244985 1.289556
7.034936 23.00405 3.448412 1.007274
7.068269 22.69683 2.382157 0.5562499
7.095308 22.60421 1.34625 0.08429373
7.122578 22.70527 0.7704375 359.8354
7.150663 22.79915 0.3116707 359.6785
7.178955 22.53734 0.109966 359.6177
7.20942 22.03617 0.01404039 359.7087
7.237962 21.67329 0.2258427 359.832
7.271295 21.51718 0.4863769 359.8712
7.299473 21.19029 0.9090214 0.1331679
7.329621 21.00517 1.406192 0.2697897
7.356792 20.9408 1.692801 0.3799168
7.385577 20.88643 1.795161 0.4617427
7.418911 20.6942 1.854301 0.4572798
7.446584 20.68078 1.883401 0.4347604
7.479917 20.86203 1.89552 0.5026546
7.510033 22.06314 1.796417 0.603865
7.537898 23.44702 1.870234 0.6754947
7.566572 26.5538 2.071224 0.8181211
7.599905 29.8735 2.260973 1.140823
7.630132 34.80452 2.811254 2.253193
7.660501 38.17556 3.641323 3.551408
7.688231 39.91735 4.278681 4.259727
7.718572 40.22769 4.379704 4.515489
7.746946 40.13605 4.288589 4.489433
7.776576 39.75248 4.230315 4.441642
7.804952 39.22787 4.063138 4.347077
7.832329 37.8866 4.050453 4.080811
7.860391 36.71448 4.046774 3.743651
7.893724 35.70732 4.067358 3.403474
7.926683 34.42881 4.358588 3.134032
7.959255 32.99703 4.832468 2.9868
7.987626 31.58188 5.3441 2.953249
8.015637 30.41608 6.092902 3.137993
8.044229 29.62901 6.547619 3.359533
8.072256 28.41971 7.067447 3.440414
8.10137 27.77407 7.38822 3.565813
8.130484 27.21102 7.776076 3.710412
8.162509 26.63125 8.221428 3.740122
8.19243 26.5337 8.454865 3.717151
8.220601 26.69424 8.494998 3.888954
8.249352 26.87883 8.478811 3.914103
8.278098 26.99651 8.48277 3.790718
8.311202 27.20699 8.246609 3.837611
8.341383 27.26542 7.835812 3.875945
8.374327 27.16998 7.371676 3.734149
8.405061 26.93133 6.933511 3.494429
8.435271 26.57757 6.054422 3.133391
8.463798 26.41071 4.904403 2.562755
8.49353 26.1524 3.643745 1.936945
8.524869 26.07015 2.863662 1.648884
8.553437 26.03786 1.762735 1.251057
8.581066 26.06853 0.7516801 0.7431943
8.610421 26.04302 0.2423339 0.4604675
8.639214 25.94625 359.692 0.2661639
8.670309 25.76102 359.449 0.2309339
8.701847 25.50146 359.2597 0.2327217
8.729878 25.27298 359.097 0.1208353
8.759602 25.07035 359.0978 0.1461259
8.787882 24.88655 359.1663 0.2781088
8.816251 24.5294 359.3976 0.4413808
8.849072 24.2345 359.6328 0.5699377
8.878562 23.67335 0.03337089 0.8288175
8.90696 23.37599 0.425106 0.9666485
8.935519 23.08263 1.431796 1.414307
8.963654 22.82849 2.424864 1.939846
8.99671 22.48674 3.87519 2.709871
9.030044 22.23035 5.199505 3.371331
9.060756 22.0511 6.349657 3.84736
9.088269 21.79668 7.272567 4.275026
9.119177 21.54433 7.729834 4.516892
9.146042 21.34673 8.214538 4.71019
9.175725 21.34671 8.481687 4.785334
9.209058 21.26005 8.61913 4.742682
9.237523 21.22564 8.569535 4.698297
9.266106 21.36225 8.447929 4.574941
9.294613 21.53248 8.264139 4.455557
9.32136 21.67429 8.036583 4.28811
9.351286 21.78421 7.950711 4.286533
9.38462 21.86471 7.899225 4.306033
9.410855 21.96416 7.934776 4.34484
9.440692 22.14446 7.984134 4.404026
9.473995 22.40519 7.995126 4.427952
9.506615 23.00124 7.983974 4.528208
9.536275 23.90144 7.93427 4.594604
9.564201 24.94874 7.959362 4.644104
9.591214 25.03031 7.979783 4.652695
9.624547 24.52027 8.082657 4.818673
9.653529 23.90681 8.348561 4.882183
9.682257 23.84852 8.628112 4.946276
9.711949 23.83413 8.705906 5.164855
9.742888 23.92211 8.663846 5.331495
9.771364 23.95971 8.51484 5.347568
9.802614 24.16986 8.382907 5.29626
9.831039 24.43674 8.17833 5.254745
9.859066 24.37027 8.092881 5.151171
9.8924 24.35484 8.069497 5.006583
9.920724 24.35496 8.068995 4.819864
9.949153 24.2702 8.021565 4.757734
9.978436 23.91647 8.013105 4.778157
10.01038 23.82268 8.038618 4.797553
10.03856 23.98425 8.176568 4.941433
10.06752 24.02137 8.360797 5.064032
10.09492 23.76633 8.476838 5.066291
10.1224 23.63734 8.550691 5.0982
10.1509 23.52493 8.618276 5.096919
10.18423 23.30567 8.686583 4.977864
10.21143 23.0885 8.742519 4.955783
10.24053 23.0623 8.763089 4.904391
10.26956 23.03451 8.838448 4.845644
10.3029 22.99406 8.847967 4.761737
10.33623 22.92703 8.830868 4.733502
10.36911 22.83086 8.736007 4.660876
10.39749 22.82091 8.442579 4.480011
10.4263 22.87172 8.086368 4.201593
10.45658 22.80118 7.54942 4.039
10.48992 22.6847 7.027223 3.88421
10.51997 22.68396 6.237722 3.587083
10.54953 22.77124 5.66833 3.432579
10.58059 22.67524 5.196025 3.262177
10.61206 22.63311 4.871172 3.051897
10.64058 22.57126 4.801009 3.021348
10.6726 22.50817 4.809443 3.029504
10.70593 22.44641 4.941923 2.993089
10.73473 22.40251 5.162236 3.09459
10.7663 22.38421 5.473015 3.185222
10.79628 22.39415 5.769158 3.273229
10.82574 22.33102 6.243806 3.438522
10.85907 22.29096 6.617026 3.644147
10.89241 22.19755 7.022377 3.874295
10.9219 22.10777 7.37013 4.032754
10.95524 22.0571 7.502935 4.079757
10.98543 21.94142 7.562593 4.061204
11.01655 21.9478 7.628599 3.936495
11.04501 21.93534 7.651755 3.905637
11.07333 21.92265 7.642171 3.85083
11.10204 21.81474 7.626273 3.743714
11.1318 21.68391 7.731466 3.70443
11.16014 21.52576 7.8106 3.635785
11.19082 21.28691 7.946319 3.506293
11.21816 21.17531 8.117271 3.579544
11.2476 20.98195 8.230687 3.64523
11.27831 20.8135 8.427567 3.694582
11.31165 20.7017 8.546865 3.728584
11.34376 20.52527 8.676614 3.784212
11.37262 20.32632 8.785442 3.837869
11.40096 20.11116 8.861607 3.852456
11.43086 19.88078 8.923637 3.803204
11.46197 19.80113 9.072097 3.658701
11.4911 19.85742 9.313465 3.533479
11.52001 19.81371 9.714968 3.476176
11.5476 19.61316 9.98385 3.408286
11.58093 19.45242 10.34671 3.414647
11.60978 19.28808 10.74906 3.443356
11.63758 18.95662 11.00847 3.439996
11.66632 18.8058 11.13265 3.364979
11.69462 18.81854 11.36397 3.437786
11.72628 18.69522 11.47087 3.427865
11.75427 18.55123 11.53446 3.336193
11.78358 18.78851 11.63261 3.266184
11.81143 18.9387 11.66712 3.0876
11.84291 18.91283 11.53805 2.89777
11.8706 18.84255 11.36676 2.920431
11.89803 18.62692 11.13929 2.898041
11.92572 18.5334 10.73539 2.72938
11.95356 18.4485 10.3192 2.581699
11.98177 18.48167 9.308091 2.34482
12.00863 18.35741 8.410087 2.161956
12.037 18.32791 7.343106 1.815456
12.07034 18.45674 6.088264 1.492576
12.09696 18.44052 4.904577 1.395773
12.12525 18.1699 3.846113 1.145638
12.15858 18.17976 2.529022 0.7465813
12.18525 17.78177 1.379295 0.2417785
12.21278 17.82327 0.8442379 0.05304581
12.24061 17.82645 0.6944318 359.9424
12.26818 17.43989 0.690375 359.9221
12.29626 17.33829 0.72904 359.9384
12.3296 17.15293 1.247458 0.04208577
12.35827 17.63342 1.886977 0.1350948
12.38798 18.01563 2.589685 0.6510644
12.41632 17.53673 3.554429 1.232777
12.44518 17.13393 4.419847 1.836636
12.47822 17.26094 5.035413 2.211926
12.5059 16.96017 5.826113 2.564929
12.53471 16.65687 6.49234 2.726215
12.56262 16.86965 6.885995 2.881979
12.59469 17.17889 7.248633 3.035488
12.62285 17.01323 7.529903 3.070641
12.65282 17.17489 7.778662 3.132912
12.68615 17.05181 8.111561 3.189043
12.71312 16.86276 8.533766 3.207794
12.74292 16.73629 8.974112 3.297453
12.77488 16.72513 9.667675 3.315397
12.80822 16.88715 10.248 3.54196
12.83788 16.7683 10.57304 3.63543
12.86662 16.47723 10.83276 3.61437
12.89599 16.46996 11.04288 3.748754
12.92623 16.70377 11.22154 3.823543
12.95957 16.83762 11.31192 3.8428
12.99058 16.7187 11.31659 3.77596
13.01757 16.53213 11.10778 3.544264
13.04632 16.69537 10.91499 3.442154
13.07371 16.73866 10.48542 3.243356
13.10163 16.6274 9.877637 2.89975
13.13322 16.71387 9.441489 2.661017
13.16304 16.91862 8.861852 2.330882
13.19129 17.00782 8.365849 1.999225
13.22024 17.02896 7.905733 1.818359
13.24857 17.18555 7.450047 1.785343
13.2819 17.30855 7.137292 1.721934
13.31158 17.36808 6.845732 1.775354
13.34344 17.39419 6.551322 1.857571
13.37218 17.36949 6.272454 1.913111
13.40029 17.38161 5.965339 1.882886
13.43167 17.41698 5.527051 1.803633
13.46223 17.54721 4.898641 1.738564
13.49146 17.63832 4.282044 1.650066
13.52059 17.72348 3.90834 1.495723
13.55393 17.83128 3.359165 1.192751
13.58469 17.99216 2.980883 0.8534208
13.61405 17.98501 2.82211 0.7502828
13.64194 18.01665 2.930254 0.7861085
13.67198 18.07581 3.462692 1.011597
13.69939 18.01888 4.230469 1.497608
13.72778 17.96725 4.777742 1.759639
13.75585 17.97473 5.43207 2.116498
13.78314 18.00129 5.773635 2.301967
13.81408 18.029 6.195835 2.334154
13.84637 18.12491 6.430345 2.342869
13.87497 18.28893 6.594686 2.428773
13.90316 18.40215 6.711201 2.443328
13.93099 18.46278 6.713954 2.480246
13.96231 18.46315 6.696463 2.539541
13.99467 18.44616 6.649491 2.522479
14.0241 18.46929 6.589265 2.525143
14.05076 18.46965 6.512879 2.461053
14.07971 18.52094 6.397696 2.365512
14.10734 18.5543 6.344049 2.313729
14.13469 18.54836 6.35628 2.246436
14.16802 18.52099 6.351254 2.170233
14.19596 18.44839 6.294739 1.999002
14.22441 18.4267 6.288693 1.909633
14.25282 18.48112 6.284096 1.934792
14.28158 18.58671 6.316972 2.056536
14.31131 18.66888 6.340046 2.15699
14.34069 18.70787 6.359093 2.173166
14.37403 18.83862 6.353324 2.15369
14.4016 18.80784 6.311256 2.183623
14.43121 18.80404 6.274913 2.231667
14.46371 18.83179 6.219508 2.176344
14.49048 18.90793 6.065435 2.175186
14.52033 18.96817 5.962228 2.198483
14.55074 18.94098 5.735434 2.151488
14.57818 18.98693 5.231209 1.961432
14.60721 19.08353 4.757784 1.777661
14.63617 19.16816 4.109125 1.416114
14.66627 19.18978 3.31491 1.109623
14.6993 19.17751 2.761589 0.8762453
14.73122 19.20523 2.068808 0.5826246
14.75905 19.3211 1.563691 0.4565809
14.78906 19.39517 1.203465 0.3764131
14.81838 19.37826 1.123936 0.378178
14.84704 19.39724 1.22185 0.4364093
14.87746 19.45938 1.584587 0.6798732
14.90731 19.51079 1.987175 0.8717788
14.93487 19.55356 2.703079 1.249899
14.9663 19.55436 3.327599 1.567151
14.99949 19.6293 3.999183 1.816707
15.02889 19.64433 4.672047 2.143712
15.05911 19.62904 5.304945 2.463591
15.08645 19.61589 5.798896 2.649752
15.11453 19.60788 6.080544 2.766159
15.14399 19.53271 6.334169 2.853027
15.17265 19.55906 6.471294 2.818491
15.20007 19.64084 6.598631 2.765166
15.22779 19.59552 6.587842 2.792134
15.25627 19.58478 6.550288 2.77041
15.2896 19.62624 6.474786 2.760174
15.32115 19.72371 6.400189 2.807887
15.35336 19.70436 6.386859 2.762067
15.38136 19.6671 6.399868 2.813474
15.40927 19.74032 6.461485 2.827603
15.4366 19.87307 6.5123 2.761638
15.46373 19.91216 6.45426 2.75767
15.49135 20.02563 6.333709 2.741603
15.5208 20.09802 6.170908 2.689631
15.55414 20.14807 5.727957 2.544307
15.5814 20.05976 5.107016 2.293585
15.61394 20.03523 4.627385 2.13421
15.64252 20.06909 3.843704 1.883029
15.67077 20.09499 2.868974 1.613558
15.7006 20.17489 2.113225 1.409656
15.72738 20.35841 0.5731525 0.8150679
15.75667 20.58083 359.0988 0.3254012
15.78634 20.96313 356.4609 359.2463
15.81295 21.12453 354.5912 358.5378
15.84223 21.25939 352.655 357.9853
15.87212 21.39886 350.1082 357.09
15.90515 21.42908 348.1012 356.342
15.93363 21.35061 346.8615 356.0264
15.96278 21.4944 345.9134 355.6782
15.98976 21.6385 345.3478 355.4761
16.01877 21.71107 345.1111 355.5446
16.04714 21.97353 344.9692 355.7256
16.07495 22.17115 344.9595 355.9018
16.10313 22.37621 344.9308 356.0634
16.13153 22.62533 345.0428 356.2151
16.15945 22.8149 345.2596 356.6292
16.19278 22.86717 345.3254 356.856
16.2212 23.12656 345.2804 357.0121
16.25046 23.22968 345.1942 357.0425
16.28379 23.366 345.1483 357.0641
16.31233 23.4294 345.0935 357.1162
16.34023 23.35322 345.0706 357.1454
16.37178 23.30194 345.1514 357.168
16.39946 23.12679 345.5107 357.3709
16.42933 23.0266 345.9571 357.6024
16.45679 22.87756 346.494 357.8227
16.49012 22.61501 347.3859 358.2592
16.51806 22.46011 348.5451 358.9313
16.54734 22.43045 349.4897 359.42
16.57602 22.21164 351.4485 0.2737725
16.60471 21.96807 353.1919 1.117134
16.63396 21.88092 355.4166 2.275715
16.66204 21.62379 357.8087 3.462246
16.69065 21.40228 359.1235 4.061923
16.72126 21.13091 0.5081025 4.506015
16.75454 20.92403 1.431525 4.708763
16.78509 20.60175 2.291309 4.874022
16.81386 20.30224 2.652274 4.898161
16.84214 20.02569 2.821006 4.815033
16.8693 19.8876 2.794888 4.686331
16.89962 19.78102 2.648591 4.48345
16.92854 19.71767 2.541871 4.387615
16.95656 19.73753 2.433351 4.139452
16.98586 19.99074 2.471272 3.833299
17.014 20.00526 2.50092 3.660117
17.04733 19.40513 2.417058 3.117862
17.07598 19.73223 2.457307 2.857949
17.10594 20.56052 2.733805 2.856811
17.13894 21.9743 3.309378 2.798613
17.17013 23.16629 4.148661 3.213154
17.20228 23.85678 5.016686 3.792953
17.22907 23.67887 6.106607 4.527951
17.25742 22.86592 6.51326 4.481828
17.28678 22.55656 7.287845 4.708074
17.3156 21.92036 8.060921 4.991959
17.34625 21.29168 8.972638 4.98018
17.37958 20.46728 9.981809 5.187984
17.41197 19.54587 11.07291 5.527174
17.4453 18.96612 12.47058 6.107433
17.47643 18.35676 13.75996 6.725682
17.5049 18.10166 14.66353 7.105661
17.53255 17.87424 15.21626 7.277083
17.56367 16.96494 15.38045 7.124154
17.59341 15.72151 15.32574 5.980216
17.6207 16.004 15.26387 5.544558
17.654 16.9213 15.17422 5.810568
17.68134 17.16002 15.19938 6.05552
17.7111 17.07119 14.99249 6.007836
17.74443 17.40837 14.56005 5.776932
17.77416 17.96409 14.16115 5.485979
17.80539 18.24882 13.56082 4.893724
17.83436 19.01997 12.90115 4.884408
17.86447 18.93389 12.35587 4.535503
17.89264 17.19026 11.52765 3.769197
17.92077 15.67817 10.85251 3.535448
17.95307 15.02329 10.04107 3.353174
17.98061 14.89871 9.194526 3.008998
18.01394 15.36902 8.673605 2.870997
18.04495 16.96615 8.083312 2.870183
18.07381 18.50679 7.674941 3.219837
18.10583 17.92666 7.455321 2.999687
18.13385 15.64992 7.211829 2.352082
18.16217 14.74437 6.869446 1.903951
18.19125 14.8775 6.777976 1.507923
18.2196 15.36585 6.765942 1.418129
18.25169 15.59217 6.689727 1.428472
18.28502 15.73855 6.600543 1.407679
18.3133 16.61787 6.402445 1.682828
18.34495 17.54795 6.063144 2.121595
18.37568 17.64885 5.928812 2.651459
18.40252 17.43469 5.844258 2.842324
18.43008 17.05756 5.665974 2.984201
18.45979 16.66948 5.631924 2.978185
18.48752 16.57157 5.623864 2.879924
18.52085 16.67196 5.691136 2.822961
18.55288 16.83624 5.835497 2.513307
18.58432 17.21339 6.068327 2.539257
18.61387 16.94791 6.417711 2.528384
18.64441 16.59899 6.601682 2.459082
18.67448 16.12944 6.884323 2.461521
18.70782 15.63282 6.880113 2.445856
18.73759 15.92224 6.707692 2.234544
18.76618 16.46857 6.647981 2.111725
18.79425 16.77008 6.629648 1.988623
18.82602 16.61156 6.656676 1.90708
18.85318 16.5289 6.725286 1.961343
18.88512 16.51857 6.894495 1.882683
18.91845 16.98946 6.980479 1.915293
18.94459 17.68747 7.154725 1.972792
18.97284 18.82732 7.217247 2.02077
19.00157 19.35736 7.428156 2.300968
19.03198 18.49156 7.539478 2.24382
19.05942 17.46727 7.499012 2.026047
19.08984 17.62396 7.502153 2.081407
19.11799 17.78016 7.53878 1.902121
19.15133 17.41112 7.479274 1.645542
19.17989 17.36784 7.340509 1.698033
19.20821 17.82978 7.257598 1.7689
19.24155 18.08328 7.308134 1.89607
19.27488 17.69677 7.380648 1.874535
19.30403 17.8816 7.338351 2.025001
19.33189 17.57449 7.031392 2.051441
19.35981 17.6572 6.553071 1.712381
19.38701 18.20083 5.753782 1.163814
19.42034 18.3862 5.006478 0.744848
19.44765 18.05263 3.339054 359.8156
19.48012 17.83816 0.8283619 357.9946
19.50924 17.3899 358.6494 356.4305
19.5411 17.19201 357.4817 355.9657
19.57211 16.65176 356.4907 355.9151
19.60125 16.24085 356.0914 356.0394
19.63186 16.32654 355.9845 356.1449
19.66135 16.29735 356.2061 356.3452
19.69468 16.37743 356.7823 356.6932
19.72802 16.03247 5.074724 1.228383
19.75988 16.09469 5.569669 1.529177
19.7931 15.8401 7.018844 2.196632
19.82158 16.46725 7.755851 2.399457
19.85491 16.51416 8.017556 2.398527
19.88824 16.35596 8.030045 2.513396
19.91563 16.68263 7.960287 2.511777
19.94513 16.95886 8.107211 2.609066
19.97392 16.85213 8.23112 2.786093
20.00725 17.1615 8.590131 2.966598
20.04001 17.59519 8.895845 3.109688
20.06868 17.41769 9.304959 3.342543
20.09822 17.05632 9.339395 3.269501
20.13155 17.05928 9.324224 3.250384
20.16489 17.05591 9.204321 3.305177
20.19684 16.9794 8.793266 3.328324
20.22495 17.05363 8.274897 3.142237
20.25414 17.34052 7.670346 3.041937
20.28215 17.59835 7.170952 3.074687
20.31548 17.77506 6.691905 2.922156
20.34882 17.90163 5.527583 2.049836
20.37717 17.67724 4.231111 1.411007
20.40551 17.62721 3.387806 1.099113
20.43885 17.84151 2.767 0.7998345
20.47218 18.11987 2.105709 0.4850891
20.50311 18.1956 1.803777 0.3235826
20.53589 18.15953 1.820011 0.3544347
20.56429 18.2517 2.269151 0.7052078
20.59228 18.23996 2.789987 1.083802
20.62562 18.08834 3.671619 1.521976
20.65892 17.90499 4.222366 1.732332
20.68709 17.6679 5.010236 2.081809
20.71535 17.53985 5.452559 2.162848
20.74494 17.55211 5.722873 2.206409
20.77827 17.68533 5.99271 2.320224
20.80632 17.76002 6.152981 2.43001
20.83966 17.87557 6.295789 2.516868
20.86828 17.96463 6.35941 2.582114
20.89578 17.94154 6.402385 2.589804
20.92912 17.89015 6.433671 2.549624
20.957 17.94339 6.491549 2.5022
20.99033 18.0915 6.580428 2.505621
21.01932 18.25913 6.705208 2.547419
21.04764 18.49053 6.819607 2.57256
21.08097 18.61928 6.871844 2.541072
21.1138 18.83396 6.954774 2.497768
21.14203 18.95674 7.074541 2.573731
21.17002 19.07817 7.078695 2.553133
21.19949 19.26239 7.09283 2.593574
21.23282 19.38371 7.068398 2.597776
21.26137 19.54869 7.115659 2.581492
21.28999 19.67027 7.140334 2.550757
21.3224 19.97721 7.194604 2.553365
21.35226 20.51207 7.350825 2.441611
21.3856 20.86826 7.54977 2.410144
21.41893 21.45479 7.763236 2.597304
21.44727 22.39367 7.929893 2.839158
21.47736 22.94055 7.971388 2.903805
21.50516 24.01596 7.984265 2.965906
21.53849 24.77326 7.969956 2.987635
21.57183 26.16604 8.021626 3.109907
21.60213 27.89267 8.385685 3.160211
21.63306 29.05867 8.78945 3.561889
21.66392 29.57253 9.383621 4.255906
21.69726 29.88543 9.750915 4.469429
21.7297 30.58418 10.23984 4.905363
21.75774 31.76453 10.73739 5.930288
21.79004 32.09436 10.93138 6.247205
21.8186 32.25789 11.18075 6.416842
21.85193 31.88273 11.79029 6.620275
21.87876 31.5243 12.3007 6.829081
21.90955 31.12495 12.91979 6.803382
21.93918 30.45148 13.44123 6.61922
21.97251 30.00011 13.81612 6.390797
22.00584 29.90825 13.99356 6.364938
22.0382 29.853 14.10439 6.344102
22.06566 29.24294 14.16755 5.870049
22.0951 28.56945 14.23314 5.203381
22.12389 28.24411 14.35805 4.995687
22.15722 27.75724 14.70692 4.988484
22.18571 27.3511 14.95163 5.104594
22.21737 26.73089 15.56625 5.038542
22.2507 27.02398 15.74708 4.990168
22.27986 27.49321 15.80129 4.912584
22.31319 27.46084 15.68066 5.150253
22.34109 27.98976 15.21649 5.143512
22.36997 28.2574 14.74655 4.787779
22.39832 28.542 14.05073 4.742246
22.42813 28.8736 13.64138 4.744975
22.46147 29.12848 13.37323 4.679133
22.48975 29.56044 13.20789 4.715234
22.51782 30.06132 13.03529 4.857354
22.54554 30.1873 13.04932 4.907687
22.5778 30.3958 12.98183 5.010582
22.61113 31.1271 12.62753 5.234537
22.6402 31.57297 12.09721 5.203803
22.67318 31.75367 11.74547 4.951617
22.70161 31.79488 11.53732 4.250631
22.73371 31.87144 11.28987 4.005243
22.76704 31.88414 11.20535 3.806363
22.79484 31.95217 11.10918 3.687015
22.82444 32.1937 10.84015 3.525031
22.85275 32.14718 10.77778 3.351935
22.88608 32.37943 10.25109 3.501128
22.91941 32.18971 9.733114 3.205415
22.95275 32.13428 9.460302 2.74849
22.9822 33.37864 9.084622 2.9553
23.00975 33.92085 8.952052 3.188447
23.04308 34.30833 8.63612 3.23525
23.07641 34.57644 8.312304 3.074712
23.10418 34.69516 8.145126 2.829628
23.1334 34.6157 7.855611 2.568536
23.16673 34.70779 7.442059 2.242328
23.19664 34.56229 7.040618 1.903279
23.22997 34.40594 6.714306 1.599875
23.25853 34.42827 6.44253 1.367548
23.28865 34.40705 6.184503 1.115039
23.31652 34.25939 6.044127 0.9942912
23.34986 34.10991 5.886285 0.9166352
23.38319 34.04487 5.608233 0.9062713
23.4111 33.96342 5.362324 0.9402844
23.43851 33.90987 4.728704 0.625354
23.46589 33.88292 4.490736 0.5109347
23.49893 33.61728 4.330442 0.5150836
23.53226 33.5938 4.232493 0.4553612
23.5644 33.75028 4.140792 0.4745915
23.59472 33.85368 4.15337 0.5818896
23.62614 33.82188 4.157648 0.6540843
23.65926 33.4696 4.273465 0.7021101
23.69259 33.13911 4.54951 0.7429803
23.72042 33.07545 4.897628 0.8787933
23.75003 32.98124 5.407554 1.250429
23.77888 32.87826 6.008681 1.74617
23.81012 32.87226 6.343576 2.096419
23.84345 32.84925 6.915399 2.542237
23.87066 32.73043 7.28295 2.775717
23.90265 32.42122 7.793357 3.080965
23.93502 32.21084 8.002563 3.196623
23.96402 32.10662 8.123713 3.20031
23.99735 32.00838 8.160254 3.091477
24.02613 31.81694 8.133091 2.979244
24.05379 31.55907 8.017502 2.863347
24.08249 31.46143 7.908386 2.739419
24.10992 31.46112 7.717969 2.627472
24.14099 31.50233 7.551163 2.562663
24.17432 31.46178 7.548284 2.509355
24.2026 31.47416 7.535475 2.342176
24.23323 31.45214 7.472738 2.289533
24.26657 31.33136 7.465152 2.386283
24.29534 31.41623 7.379062 2.397009
24.32867 31.46941 7.144315 2.506889
24.35756 31.54001 6.885777 2.483321
24.38674 31.17082 6.552408 2.07328
24.42008 31.22632 6.324382 1.894418
24.44891 31.0477 5.964876 1.623955
24.48224 30.63296 5.965191 1.345757
24.51289 30.25268 5.956634 1.338841
24.54582 29.96157 5.852846 1.589496
24.57915 29.69717 5.959779 1.722543
24.60977 29.56197 6.196484 2.10169
24.6431 29.80904 6.313937 2.510662
24.67644 30.2987 6.448221 2.686677
24.70372 30.53718 6.600738 3.046809
24.73554 30.50613 6.562543 3.195376
24.76474 30.26352 6.426083 3.270083
24.79807 29.8856 6.324495 3.292337
24.82676 29.79902 6.321207 3.115786
24.86009 29.55728 6.302746 2.894655
24.89041 29.24047 6.195658 2.883073
24.91964 29.12401 6.145868 2.931067
24.95297 28.79666 6.050452 2.766423
24.9829 28.84741 6.01974 2.587388
25.01104 29.18601 6.248762 2.568561
25.04047 29.34179 6.470572 2.726969
25.06826 29.24721 6.775603 2.865192
25.10159 29.0295 7.03215 2.970398
25.13493 28.86532 7.176751 3.01739
25.16565 28.28401 7.369642 2.929394
25.19581 27.96404 7.35701 2.840536
25.22663 27.82702 7.311458 2.644475
25.25997 27.89719 7.262079 2.513092
25.2931 27.86135 7.268243 2.331996
25.32129 27.70654 7.326941 2.230528
25.35219 27.21813 7.444205 2.254097
25.38074 26.8858 7.559333 2.203429
25.41407 26.58916 7.817646 2.22592
25.4456 26.2793 8.107124 2.302421
25.47327 25.83596 8.440687 2.339155
25.50556 25.45152 8.772559 2.542954
25.53611 24.99799 9.215333 2.824768
25.56944 24.47288 9.669339 3.054552
25.6026 23.80488 10.41479 3.576622
25.63146 22.71668 11.71136 4.319483
25.66102 22.06788 12.46923 4.750672
25.68829 21.28847 13.26088 5.220901
25.72162 20.59599 13.94389 5.467618
25.75272 20.21943 14.35923 5.423416
25.78605 19.39153 15.06188 5.544016
25.81833 18.77347 15.40829 5.661667
25.84883 18.32564 15.68165 5.752009
25.88216 18.08076 15.77774 5.769149
25.91181 17.50803 15.94144 5.740233
25.9393 16.61197 16.40444 5.6641
25.97264 16.15268 16.75021 5.645261
26.00221 15.53253 17.45203 5.542727
26.03555 14.67821 18.28918 5.794977
26.06642 14.2212 18.97323 6.043873
26.09835 13.74804 20.57456 6.543201
26.1267 13.34008 21.81757 6.805295
26.15726 13.03469 22.60775 7.067482
26.19059 12.28642 23.65037 7.291303
26.21798 11.60452 24.50212 7.642937
26.25131 10.90793 25.26505 7.903219
26.27816 10.24501 25.89889 8.292054
26.30664 9.986978 26.3907 8.540563
26.33998 9.561279 27.09474 8.838996
26.36949 9.250279 27.70545 9.189425
26.39758 9.099628 28.18779 9.587564
26.42681 8.938041 28.46012 9.954711
26.4548 8.891597 28.53709 10.1906
26.48813 8.753178 28.51002 10.21591
26.52146 8.61059 28.43575 10.22492
26.55141 8.311911 28.00917 10.45609
26.57976 8.325489 27.78146 10.43814
26.61038 8.294272 27.47582 10.46335
26.64371 7.872365 27.3149 10.45195
26.67311 7.419496 27.22376 10.39122
26.70283 6.823475 27.04955 10.26648
26.73046 6.329685 26.96181 9.894037
26.75805 5.85532 26.89121 9.286446
26.79138 5.580639 26.89812 9.093148
26.82124 4.994831 27.0689 8.904381
26.8483 4.468806 27.37912 8.960128
26.87631 4.118011 27.65946 8.953464
26.90964 3.699526 27.90675 8.839014
26.94297 3.073873 28.28965 8.786816
26.97631 2.603823 28.51337 8.746078
27.00964 2.057266 28.92438 8.701657
27.041 1.87135 29.11081 8.908768
27.07145 1.783155 29.26161 8.958581
27.10479 1.726707 29.32934 8.895252
27.13599 1.707312 29.28996 8.982697
27.16872 1.994035 29.03681 8.93347
27.19862 2.399647 28.64748 8.692684
27.22902 2.760794 28.07359 8.667786
27.26236 3.117322 26.78974 8.505581
27.29569 3.76237 24.90386 7.844017
27.32413 4.66658 21.56722 6.894837
27.35746 4.969853 19.72537 6.471967
27.39079 5.733983 16.72688 5.827121
27.42413 5.66568 13.93875 5.104442
27.45207 5.166743 12.18577 4.463526
27.48079 4.710264 11.20819 3.979079
27.51149 4.502709 11.13841 4.129978
27.54042 4.043675 11.97925 4.530631
27.57375 3.637133 12.85659 4.80346
27.60484 3.030384 14.50049 5.108424
27.63732 2.313252 17.2973 5.16408
27.67066 1.701641 19.78691 4.601606
27.70123 0.555169 22.70398 4.094449
27.73456 359.1992 25.17639 4.781642
27.76453 358.4327 26.4413 5.080612
27.79225 356.8932 28.78002 5.262006
27.82085 356.4034 29.59398 5.296087
27.85024 355.9691 30.30291 5.228604
27.88357 355.6774 30.64387 4.770015
27.91632 355.0418 31.13586 4.252054
27.94619 354.6957 30.97623 4.419461
27.97529 354.6077 30.9359 4.115985
28.00419 354.5692 30.69575 3.82123
28.03753 354.7963 30.14418 3.829244
28.06818 354.8554 29.77415 3.745057
28.09595 354.9777 29.12894 3.825696
28.12928 355.2188 28.81408 3.879939
28.16239 355.6214 28.41817 3.803365
28.19572 355.8195 28.22921 3.806282
28.226 356.0142 28.08572 3.710871
28.25538 356.5539 27.84058 3.650183
28.28332 357.2828 27.40881 3.667149
28.31665 357.5975 27.14544 3.567156
28.34999 358.0949 26.70436 3.41935
28.38332 358.5773 26.00277 3.615275
28.4126 358.9851 25.32493 3.769178
28.44593 359.4708 24.95802 3.784884
28.4783 0.01314027 24.33936 3.90062
28.51163 0.372071 23.92127 4.048135
28.54014 1.178686 23.38121 4.243148
28.56762 2.362717 22.45017 4.148898
28.59647 2.496662 22.11311 4.070576
28.62724 2.965806 21.71914 3.928614
28.66058 3.38054 21.46291 3.935894
28.69073 3.568566 21.28631 4.087822
28.71972 3.703142 21.24012 4.083803
28.74838 3.776599 21.19989 4.071139
28.77753 3.941216 21.14487 4.016655
28.81086 4.144459 21.02212 3.954179
28.8439 4.277933 20.78575 3.937756
28.87723 4.316103 20.49879 3.836111
28.90568 4.393086 20.27487 3.774954
28.93364 4.447398 20.09594 3.697902
28.96697 4.384618 19.83221 3.583615
28.99471 4.386248 19.69346 3.454094
29.02804 4.518599 19.6081 3.303587
29.05745 4.530212 19.53844 3.182084
29.08732 4.457379 19.49222 3.079067
29.12066 4.427975 19.40377 3.039011
29.14872 4.503623 19.27135 3.080475
29.18205 4.45664 19.06402 3.201277
29.21226 4.502595 18.88638 3.290329
29.24152 4.627388 18.73956 3.324504
29.27485 4.745626 18.66743 3.304402
29.30307 4.855286 18.48676 3.258853
29.33105 4.952391 18.46036 3.142119
29.36072 4.998895 18.47229 3.167403
29.3938 5.035118 18.43124 3.285122
29.42713 5.070663 18.40549 3.245593
29.45361 5.152897 18.2923 3.362
29.48568 5.258613 18.20121 3.443898
29.5144 5.320829 18.14123 3.428521
29.5469 5.350796 18.02293 3.402457
29.58023 5.36809 18.01599 3.298605
29.60994 5.324031 17.9855 3.325414
29.63896 5.40021 17.9458 3.216657
29.67064 5.408197 17.96515 3.170594
29.70047 5.502553 17.91257 3.159411
29.73381 5.722096 17.87877 3.160768
29.76422 5.903899 17.82162 3.129546
29.79486 5.936478 17.77798 3.105606
29.82536 5.854058 17.70284 3.194367
29.85869 5.807128 17.66217 3.110878
29.89203 5.661575 17.64661 3.019249
29.92116 5.679121 17.60682 3.022148
29.95146 5.972701 17.57617 3.098243
29.98397 5.998304 17.53352 3.158178
30.01279 6.039496 17.44673 3.158379
30.04613 6.266907 17.41267 3.189411
30.07946 6.590775 17.42352 3.139458
30.1079 6.443549 17.29923 3.220263
30.13623 6.335646 17.25805 3.187521
30.1667 6.372421 17.22609 3.059349
30.20003 6.368602 17.13904 3.147022
30.23093 6.432261 17.04914 3.188869
30.26064 6.525386 17.03158 3.292334
30.29232 6.386378 16.96036 3.316979
30.32236 6.348569 16.93364 3.19236
30.35569 6.408709 16.86404 3.170506
30.38626 6.46766 16.78918 3.105114
30.41708 6.534777 16.72255 3.041159
30.44972 6.739724 16.64304 2.995847
30.47862 6.898003 16.54205 2.918708
30.51195 6.962379 16.39404 2.839546
30.54528 6.939865 16.22991 2.782396
30.57301 7.083262 15.83003 2.729291
30.60634 7.270548 15.55275 2.740878
30.63968 7.534336 15.30397 2.796998
30.67301 7.838889 15.06019 2.820714
30.70166 8.13537 14.88802 2.830186
30.73113 8.412238 14.71592 2.858388
30.76446 8.601033 14.61392 2.837962
30.79384 9.08977 14.50826 2.79617
30.82718 9.517579 14.46667 2.750177
30.85578 9.658381 14.48497 2.767316
30.88579 10.07283 14.39225 2.998013
30.91421 10.21555 14.36995 3.039298
30.94267 10.387 14.37292 3.107059
30.976 10.52231 14.38305 3.20757
31.00798 10.53802 14.39169 3.367133
31.03613 10.64165 14.32408 3.48815
31.06946 10.74223 14.33347 3.512597
31.09752 10.89058 14.29691 3.577529
31.13085 10.93082 14.26861 3.567169
31.1587 10.96034 14.26096 3.578208
31.18663 10.88874 14.23049 3.521738
31.21577 10.84048 14.22067 3.453246
31.2432 10.84396 14.21516 3.416428
31.27653 10.99845 14.24757 3.448547
31.3083 11.09954 14.29072 3.479293
31.34119 11.17818 14.33195 3.521138
31.36975 11.20564 14.32362 3.552715
31.39736 11.21349 14.33703 3.576716
31.43069 11.19817 14.31841 3.56702
31.45945 11.30004 14.26262 3.62286
31.4883 11.42678 14.24067 3.624811
31.51662 11.58298 14.16894 3.60032
31.54996 11.64183 14.16702 3.584443
31.58329 11.71297 14.2005 3.589259
31.61135 11.66943 14.16041 3.709942
31.63926 11.61375 14.07627 3.741284
31.66807 11.72448 13.99532 3.71857
31.69682 11.75527 13.97879 3.798069
31.72812 11.77427 13.90228 3.844834
31.76145 11.85522 13.80368 3.880482
31.79478 11.90032 13.65216 3.938998
31.82492 12.10245 13.40065 3.839231
31.85294 12.19864 13.06231 3.843021
31.88149 12.31221 12.69855 3.790842
31.91482 12.38673 11.76531 3.475455
31.94306 12.4335 10.52924 3.093894
31.97605 12.53305 7.57737 1.83694
32.00351 12.99321 4.925461 0.7658564
32.03685 13.3742 2.997909 0.3191059
32.07018 13.76034 0.129334 359.5057
32.09909 14.05147 358.0842 358.7907
32.12676 14.25528 356.0107 358.343
32.15486 14.44344 354.2282 358.061
32.18188 14.59635 353.1984 357.7292
32.21015 14.68105 352.3453 357.5865
32.24348 14.67684 351.8148 357.5332
32.27199 14.78337 351.462 357.3937
32.30006 14.9907 351.3759 357.3587
32.33194 15.21643 351.6604 357.4248
32.3638 15.47186 352.1501 357.6508
32.39713 15.61164 352.6088 357.9727
32.42733 15.64949 353.3936 358.3964
32.45469 15.16211 355.2353 359.5395
32.48185 14.90717 357.0428 0.6139569
32.51222 15.05923 359.52 1.912664
32.54555 15.38402 2.673581 3.440929
32.57376 15.49187 4.817552 4.473019
32.60146 15.48246 8.134862 5.919144
32.63285 15.43185 10.30633 6.943158
32.66035 15.51729 12.08778 7.658221
32.69369 15.52843 13.10111 7.987116
32.72212 15.44692 14.10562 8.244354
32.74979 15.36279 14.75667 8.537602
32.78054 15.37251 15.04974 8.808647
32.80853 15.39184 15.10618 8.886922
32.84186 15.35344 15.07954 8.703785
32.87013 15.21629 15.00953 8.441802
32.90231 15.16063 14.27218 7.785065
32.93333 15.17254 13.55952 7.303864
32.96312 15.19132 13.18937 7.019812
32.99646 15.32497 12.74315 6.816384
33.02756 15.37532 12.34752 6.779849
33.05465 15.52596 11.88139 6.74624
33.08653 15.59812 11.62805 6.65741
33.11745 15.7164 11.14291 6.360046
33.15079 15.77247 10.14434 5.991988
33.17974 15.78697 9.100617 5.47191
33.20783 15.87013 7.354372 4.598909
33.23539 16.02446 6.449242 4.216682
33.26259 16.25866 5.131225 3.752499
33.29037 16.4117 4.310778 3.435564
33.3237 16.55963 3.219288 2.987495
33.35175 16.54301 2.578806 2.794868
33.37874 16.56741 1.702353 2.319712
33.41207 16.57895 1.347597 2.143393
33.44036 16.61783 0.9311479 2.118226
33.47369 16.74626 0.525281 1.988575
33.50331 16.73395 0.2774855 1.899343
33.53193 16.76708 0.08748426 1.885795
33.56034 16.7433 359.8289 1.769337
33.58907 16.68225 359.7473 1.648758
33.62241 16.65628 359.6913 1.617467
33.65088 16.6565 359.6614 1.547814
33.67902 16.6253 359.8785 1.570092
33.7063 16.68571 0.0374788 1.629497
33.73621 16.79177 0.3403936 1.745606
33.76954 16.82838 0.6865253 1.848692
33.79797 16.84523 1.423704 2.151945
33.83131 16.77089 2.20004 2.576343
33.86143 16.65244 2.804219 2.834601
33.89441 16.60543 3.352356 3.014978
33.92774 16.5322 3.792658 3.016671
33.9557 16.45883 4.052859 3.076348
33.98432 16.41216 4.210059 3.244571
34.01316 16.54659 4.354718 3.332632
34.0465 16.55647 4.403942 3.355494
34.07983 16.55357 4.465995 3.357589
34.10673 16.49349 4.50458 3.363504
34.13414 16.44559 4.485482 3.294129
34.1669 16.45763 4.486446 3.264974
34.19555 16.3514 4.227843 3.456057
34.22889 16.36487 4.051525 3.32129
34.25792 16.34657 4.022003 3.147878
34.28588 16.29282 3.97149 3.05677
34.3184 16.30341 3.987879 3.055763
34.34703 16.25177 4.06889 3.056711
34.38036 16.2002 4.102113 3.085085
34.40818 16.14828 4.15075 3.078861
34.44004 16.12638 4.197321 3.086388
34.46978 16.21321 4.175026 3.094283
34.49787 16.28532 4.13717 3.103414
34.5312 16.32276 4.134152 3.117405
34.56236 16.42425 4.11038 3.080986
34.59527 16.55556 4.138009 3.076195
34.623 16.57929 4.181005 3.058079
34.65131 16.56087 4.223547 3.073261
34.68464 16.49582 4.229551 3.114003
34.71246 16.4808 4.257385 3.080912
34.73882 16.48063 4.304711 2.958662
34.76835 16.45828 4.290756 3.046857
34.80168 16.43191 4.273601 3.096075
34.83501 16.38372 4.224817 3.061051
34.86835 16.43097 4.172085 3.11888
34.89634 16.41652 4.13643 3.103676
34.92377 16.3779 4.111203 3.114413
34.95255 16.36197 4.091794 3.093032
34.98589 16.38217 4.139882 3.02738
35.01922 16.38528 4.144572 3.042988
35.0467 16.46197 4.15268 3.108412
35.0746 16.46585 4.169225 3.084659
35.10214 16.48808 4.142439 3.079659
35.13547 16.53957 4.11754 3.125473
35.16489 16.54366 4.060938 3.124994
35.19142 16.56981 4.038524 3.098575
35.21957 16.52666 4.035283 3.060953
35.24893 16.47445 4.050786 3.123909
35.28152 16.42539 4.086288 3.229767
35.31485 16.38737 4.058067 3.240764
35.343 16.37411 4.03859 3.236072
35.37037 16.33092 4.032693 3.258793
35.4037 16.32806 4.035719 3.251596
35.43267 16.34664 4.033679 3.193386
35.466 16.36651 4.095761 3.270875
35.49817 16.27145 4.129009 3.28953
35.52628 16.23495 4.16838 3.274258
35.55465 16.21678 4.188982 3.212658
35.58338 16.28237 4.256876 3.248363
35.61672 16.20905 4.263361 3.371622
35.65005 16.20449 4.195566 3.363207
35.67768 16.23972 4.103178 3.291349
35.70829 16.21594 4.070809 3.298258
35.74149 16.23068 4.046633 3.257226
35.77482 16.22835 4.111472 3.271065
35.80241 16.14972 4.180717 3.294508
35.82862 16.12118 4.275854 3.208261
35.85711 16.14455 4.270785 3.205079
35.88723 16.14027 4.297931 3.30147
35.92056 16.10267 4.279094 3.224608
35.94852 16.04121 4.233572 3.223532
35.97573 16.23851 4.167576 3.260668
36.00657 16.30119 4.150011 3.265862
36.03823 16.29018 4.152533 3.27156
36.07156 16.92053 4.064633 3.089098
36.1009 17.22185 3.980256 3.125346
36.12991 16.56385 3.985133 2.940554
36.1578 15.50341 3.911236 2.877351
36.18808 15.15391 3.950703 2.935296
36.22141 16.13006 3.884001 2.74916
36.2544 16.85313 3.903315 2.905953
36.28069 16.99229 3.980592 3.083149
36.30868 16.27697 4.004066 3.235675
36.34201 15.87215 3.932655 3.279259
36.37534 16.05038 3.872136 3.24614
36.40318 16.43297 3.866628 3.163464
36.43137 16.74509 3.927486 3.174572
36.45867 16.91686 3.955533 3.244261
36.48737 16.97113 3.976494 3.148049
36.52063 16.86538 3.947981 3.096427
36.55396 16.6007 4.013612 3.03602
36.58168 16.37289 4.025302 2.897793
36.61501 16.29465 4.115191 2.85894
36.64221 16.39161 4.138572 2.816458
36.67039 16.45598 4.191606 2.767831
36.70372 16.49048 4.147243 2.865646
36.73093 16.4667 4.095955 2.952089
36.75956 16.30934 4.010187 2.837932
36.78701 16.25269 3.983019 2.771054
36.81773 16.28152 4.005651 2.704639
36.84547 16.34076 4.103545 2.695916
36.87881 16.39512 4.268116 2.745495
36.90626 16.40465 4.396153 2.775578
36.9335 16.46187 4.478983 2.848411
36.96458 16.48676 4.553082 2.857527
36.99684 16.46736 4.499131 2.881104
37.03017 16.48458 4.484205 2.864339
37.0635 16.4158 4.416015 2.821087
37.09179 16.3885 4.398922 2.774966
37.11997 16.45144 4.397106 2.740575
37.14959 16.4749 4.461464 2.781585
37.18293 16.50694 4.52451 2.772335
37.2114 16.4833 4.560752 2.799214
37.24453 16.45149 4.593692 2.690239
37.27084 16.50629 4.63665 2.616976
37.29973 16.44429 4.665569 2.679907
37.33307 16.38512 4.659142 2.705011
37.36543 16.4723 4.586609 2.679695
37.39223 16.5908 4.518468 2.720006
37.41972 16.5448 4.505922 2.68876
37.44667 16.48968 4.491666 2.694523
37.48001 16.46948 4.459165 2.671753
37.50813 16.43765 4.487117 2.627386
37.54082 16.50089 4.555239 2.684088
37.57193 16.52738 4.62264 2.710626
37.60527 16.56322 4.600019 2.669333
37.6386 16.57914 4.584996 2.650282
37.66747 16.55919 4.520676 2.601175
37.69809 16.53007 4.502308 2.629696
37.72548 16.4849 4.513729 2.634042
37.75881 16.4879 4.496723 2.639155
37.79214 16.56929 4.466831 2.638916
37.81909 16.58494 4.451852 2.653678
37.8502 16.54035 4.453516 2.656198
37.87771 16.49147 4.470977 2.61031
37.90427 16.52482 4.467875 2.607595
37.93269 16.52434 4.492519 2.608406
37.96602 16.47898 4.474283 2.551503
37.99936 16.4192 4.47332 2.53435
38.02871 16.47762 4.468369 2.575472
38.05746 16.47043 4.474978 2.550819
38.08574 16.46245 4.460252 2.501845
38.11907 16.50095 4.483489 2.41016
38.1497 16.58507 4.549928 2.404025
38.17737 16.46355 4.537764 2.486695
38.21027 16.39002 4.564412 2.42946
38.24361 16.40559 4.485904 2.394749
38.27694 16.45035 4.501416 2.383409
38.30471 16.41797 4.565367 2.437362
38.33363 16.45871 4.600742 2.474234
38.361 16.40644 4.617311 2.44731
38.38894 16.33487 4.639957 2.401527
38.41702 16.35049 4.630759 2.485753
38.45036 16.3604 4.641774 2.464323
38.48174 16.34171 4.596722 2.442041
38.51175 16.37131 4.590682 2.41564
38.54124 16.3847 4.655012 2.449753
38.57457 16.38512 4.676536 2.483745
38.60791 16.37164 4.745646 2.498685
38.63895 16.34833 4.793535 2.526734
38.66771 16.34988 4.793597 2.52222
38.69831 16.42136 4.789729 2.521646
38.72524 16.39562 4.773553 2.535942
38.75858 16.30231 4.764323 2.556174
38.78849 16.32859 4.760464 2.539825
38.81571 16.35265 4.787735 2.550986
38.84287 16.27906 4.770828 2.550658
38.87621 16.24331 4.770091 2.534134
38.90954 16.24035 4.755825 2.50272
38.94129 16.30867 4.775759 2.413232
38.97345 16.36712 4.773003 2.377136
39.00012 16.40009 4.848371 2.36537
39.02872 16.43348 4.904422 2.415859
39.06205 16.35745 4.953751 2.468718
39.09409 16.19138 4.966572 2.460989
39.12237 15.99452 4.927473 2.343608
39.15453 15.87652 4.868473 2.235481
39.18353 15.67943 4.803012 2.178039
39.21687 15.47818 4.740939 2.166334
39.24855 15.29751 4.725127 2.124198
39.28188 15.09372 4.728169 1.965026
39.31285 14.95145 4.732449 1.757072
39.34075 14.82474 4.77256 1.742965
39.37408 14.72793 4.77979 1.654213
39.40545 14.72362 4.822829 1.544052
39.43317 14.76676 4.91177 1.492814
39.46371 14.73258 4.999697 1.477217
39.49311 14.7138 5.023694 1.560423
39.52644 14.61033 5.086127 1.69539
39.55859 14.59846 5.013083 1.716125
39.58669 14.55362 5.01343 1.80303
39.61631 14.35332 5.190787 1.766231
39.64366 14.22122 5.334906 1.468753
39.67699 13.89033 5.368926 1.212455
39.70581 13.25056 5.174282 1.350548
39.73871 13.18823 4.745833 1.517559
39.76577 13.46204 4.210548 1.524628
39.7982 13.73105 3.89565 1.311159
39.83154 14.22079 3.648445 1.021449
39.85861 14.25252 3.563483 0.7040599
39.88677 13.6596 3.457155 0.6661686
39.91293 13.1626 3.235559 0.7278498
39.94166 13.16595 3.068743 0.791861
39.97007 13.5898 2.70993 0.800815
40.00341 13.87628 2.496218 0.6913453
40.03258 14.15317 2.219083 0.4363939
40.06592 14.22747 2.079178 0.2997993
40.09794 14.07001 2.050564 0.1255173
40.1258 13.79267 2.08003 0.01948794
40.15913 13.80379 2.068768 359.9478
40.18967 13.89625 2.038012 359.8298
40.21837 13.87063 2.023692 359.7494
40.25148 13.92313 2.032429 359.6338
40.28481 14.10298 2.04488 359.5575
40.31814 14.03064 2.051603 359.7223
40.34887 13.81824 2.107522 359.7988
40.37591 13.64792 2.191405 359.9809
40.40388 13.6072 2.178264 0.03631059
40.43216 13.56575 2.165916 0.06457806
40.46549 13.57026 2.148389 0.01996865
40.49883 13.53648 2.13184 359.9591
40.53216 13.42698 2.240046 359.8486
40.56117 13.35945 2.372503 359.7296
40.5913 13.34217 2.463583 359.7093
40.62463 13.29544 2.577023 359.7189
40.6539 13.25943 2.69971 359.6496
40.68308 13.20539 2.884504 359.7351
40.71008 13.18711 2.898273 359.8347
40.73706 13.24136 2.884194 359.8561
40.7704 13.3134 2.844651 359.8612
40.80155 13.34831 2.763415 359.8545
40.83488 13.32797 2.699289 359.8834
40.86264 13.24411 2.691894 359.9066
40.89207 13.2254 2.721622 359.9121
40.9254 13.20567 2.750658 359.8611
40.95844 13.19444 2.762321 359.9313
40.98977 13.24701 2.846534 359.8755
41.0168 13.2675 2.866686 359.8829
41.04514 13.25314 2.871544 359.8515
41.07848 13.20656 2.909337 359.817
41.10603 13.14648 2.940651 359.839
41.13598 13.11412 2.963045 359.8997
41.16514 13.13747 2.980115 359.9341
41.19389 13.24479 2.965019 359.9544
41.22722 13.23655 2.938403 359.968
41.25928 13.23218 2.941818 359.9651
41.28656 13.26985 2.925572 359.9461
41.31554 13.27041 2.945795 359.9267
41.34427 13.23793 2.949768 359.9134
41.37761 13.25116 2.95629 359.9339
41.40569 13.2928 2.985282 359.9815
41.43395 13.31563 2.924857 359.9882
41.46086 13.31482 2.933928 0.007232333
41.48918 13.41314 2.85158 359.9197
41.52043 13.46241 2.885225 0.01822146
41.55376 13.39472 2.830818 0.1757463
41.58308 13.38948 2.799672 0.1271224
41.61108 13.41842 2.733154 0.1430112
41.63832 13.52398 2.673158 0.1611433
41.66811 13.55172 2.645302 0.1872895
41.70145 13.50981 2.643926 0.165053
41.7328 13.43158 2.656309 0.1944772
41.76554 13.36552 2.689178 0.1225698
41.79354 13.33371 2.674285 0.1130683
41.82112 13.28526 2.710057 0.04980788
41.85445 13.25616 2.770467 0.08655908
41.88724 13.24579 2.892264 0.1174784
41.91535 13.23929 3.061684 0.1611602
41.9436 13.28931 3.2465 0.2558261
41.97155 13.29341 3.398695 0.2759417
42.00489 13.28541 3.764888 0.438101
42.0365 13.29677 4.113895 0.6064196
42.06478 13.29156 4.662011 0.860187
42.09278 13.26126 4.875813 0.874122
42.12512 13.23492 5.04603 0.8748338
42.15845 13.24572 5.172853 0.9389971
42.18602 13.27453 5.175083 0.9018773
42.21471 13.35357 5.117696 0.9077191
42.24805 13.35088 5.001934 0.9154407
42.2756 13.31766 4.947735 0.9126088
42.30893 13.35165 4.932207 0.8387175
42.33783 13.30918 4.843728 0.9438097
42.36555 13.24453 4.78838 0.9657012
42.39321 13.29587 4.799809 0.9075609
42.42169 13.27275 4.770658 0.8951378
42.45502 13.25729 4.80045 0.9120368
42.48261 13.16752 4.811226 0.8992772
42.51595 13.07982 4.809225 0.9114338
42.54301 13.03644 4.789057 0.8132327
42.57035 12.89657 4.616409 0.7297391
42.60368 12.87027 4.511414 0.6656122
42.63072 12.87878 4.355401 0.4997069
42.65904 12.85658 4.179214 0.3982902
42.68682 12.78649 4.050621 0.319328
42.71904 12.7652 3.901562 0.07770497
42.75237 12.72545 3.800096 359.876
42.78339 12.64856 3.724438 359.7715
42.81072 12.65608 3.59802 359.6987
42.84166 12.63693 3.561308 359.6244
42.87122 12.74048 3.51323 359.4893
42.90456 12.92619 3.437926 359.3657
42.9362 13.07021 3.404663 359.2494
42.96482 13.17499 3.389615 359.1063
42.9916 13.16026 3.385294 359.1094
43.02493 13.06354 3.429364 359.0844
43.05826 12.92689 3.515622 358.9862
43.08451 12.92792 3.600804 358.9566
43.11356 12.76816 3.566021 359.1467
43.1414 12.65043 3.547779 359.1483
43.16863 12.72656 3.495025 359.0695
43.19766 12.77847 3.435946 359.0916
43.23099 12.74961 3.421402 359.0496
43.25739 12.75384 3.336968 359.0503
43.28602 12.76722 3.213082 358.9949
43.31531 12.77422 3.141879 358.8867
43.34815 12.82852 3.080718 358.8348
43.38148 12.89046 2.983466 358.7798
43.40942 12.94586 2.96351 358.6704
43.43742 12.7953 3.060747 358.5892
43.46928 12.68021 3.136776 358.6596
43.50002 12.61763 3.235011 358.7463
43.53335 12.67298 3.228266 358.7946
43.56361 12.66191 3.286827 358.7883
43.591 12.55359 3.262016 358.7078
43.61755 12.51384 3.233463 358.7441
43.647 12.49943 3.218749 358.7502
43.67454 12.4816 3.225697 358.7325
43.70787 12.50792 3.212581 358.783
43.73589 12.50094 3.20893 358.7945
43.76482 12.53273 3.185287 358.7828
43.79387 12.48239 3.238468 358.8538
43.82252 12.50083 3.387447 358.8061
43.85585 12.51874 3.561728 358.804
43.8852 12.47445 3.630739 358.9434
43.91395 12.51945 3.63543 359.0385
43.94614 12.53021 3.520375 359.0139
43.97762 12.57772 3.386442 358.9688
44.01096 12.51656 3.326671 358.9416
44.04169 12.50021 3.314312 358.8961
44.06883 12.44692 3.476933 358.8207
44.09716 12.39701 3.621216 358.7901
44.12498 12.34548 3.778934 358.9156
44.15832 12.32347 3.907045 358.8834
44.19057 12.25454 3.995801 358.8493
44.21843 12.40224 3.88981 358.8574
44.25176 12.43985 3.835215 358.851
44.2812 12.46158 3.695428 358.7845
44.31453 12.47305 3.630795 358.6887
44.3424 12.50527 3.563285 358.6127
44.37071 12.55435 3.565247 358.6146
44.40042 12.55132 3.661278 358.568
44.42794 12.47433 3.778134 358.6195
44.46128 12.46331 3.865455 358.7047
44.48887 12.47837 3.870302 358.7882
44.51852 12.51656 3.778529 358.7767
44.55185 12.46234 3.709102 358.7299
44.57909 12.53337 3.74418 358.6955
44.61243 12.53476 3.755978 358.7953
44.64169 12.43181 3.768283 358.9453
44.67236 12.38983 3.819508 358.9119
44.70015 12.32601 3.841074 358.9147
44.7322 12.29199 3.912601 358.9403
44.76554 12.40266 3.973568 358.9711
44.79794 12.37245 4.060833 359.0925
44.82925 12.38958 4.127913 359.2134
44.85703 12.50848 4.197033 359.3563
44.88663 12.58897 4.1643 359.4897
44.91996 12.60192 4.151412 359.5883
44.94959 12.66156 4.183517 359.622
44.97712 12.76493 4.291397 359.4541
45.00941 12.73496 4.397064 359.3647
45.03782 12.59877 4.531355 359.4915
45.07116 12.50244 4.613342 359.5956
45.10041 12.42533 4.699176 359.7456
45.12788 12.36337 4.70647 359.8503
45.15719 12.2535 4.722799 359.846
45.19053 12.21189 4.691695 359.8094
45.22386 12.24475 4.784466 359.7173
45.252 12.22624 4.850236 359.7577
45.27962 12.31956 4.914262 359.6138
45.31241 12.25984 4.994459 359.5322
45.33937 12.32899 5.129195 359.3459
45.37271 12.38235 5.227535 359.3491
45.40442 12.24769 5.341952 359.4616
45.43093 12.22465 5.494522 359.3032
45.46083 12.23356 5.559834 359.3224
45.4939 12.21572 5.594583 359.3601
45.52723 12.06421 5.651964 359.4017
45.55596 11.97394 5.645953 359.4596
45.58614 12.07415 5.626565 359.4151
45.61601 12.05442 5.627861 359.4558
45.64438 11.96471 5.659761 359.4732
45.67772 11.86901 5.711221 359.3828
45.7043 11.81064 5.771331 359.3743
45.73631 11.73699 5.951836 359.507
45.76428 11.65865 6.056845 359.5019
45.79205 11.63681 6.097592 359.5047
45.82538 11.61638 6.140824 359.4964
45.85632 11.64058 6.11127 359.5566
45.88826 11.71413 6.050266 359.581
45.91861 11.73495 6.023259 359.613
45.94954 11.76065 5.893433 359.6983
45.98287 11.84008 5.874352 359.6973
46.0153 11.8667 5.842614 359.7826
46.04416 11.89621 5.780822 359.769
46.07138 11.98374 5.794224 359.7164
46.09966 12.01079 5.837935 359.9055
46.13299 11.97011 5.803457 -0.002925134
46.16037 11.91151 5.720972 359.9253
46.18811 11.93587 5.625664 359.7992
46.21797 11.88046 5.573773 359.8059
46.25103 11.87996 5.531102 359.8793
46.28436 11.86344 5.493517 359.8819
46.31397 11.89246 5.521843 359.7891
46.34085 11.89219 5.586403 359.6331
46.36823 11.89429 5.673072 359.5949
46.39503 11.86066 5.719772 359.4391
46.42656 11.76003 5.673782 359.4134
46.4599 11.77269 5.526812 359.3366
46.48891 11.80342 5.330002 359.2261
46.51709 11.85551 5.215269 359.1409
46.54948 11.88571 5.178138 359.2069
46.5784 11.93974 5.165509 359.3206
46.61174 11.94513 5.22717 359.3406
46.63977 11.95535 5.302639 359.4337
46.67311 12.00764 5.353652 359.5155
46.69983 12.00176 5.335121 359.528
46.72866 11.95887 5.312214 359.5238
46.762 11.95766 5.223032 359.5408
46.7883 11.95844 5.269629 359.435
46.81528 11.98226 5.349824 359.4671
46.84329 11.95749 5.419985 359.6618
46.8717 11.98629 5.499298 359.6471
46.90503 11.98561 5.661488 359.7754
46.93344 11.94777 5.76631 359.8702
46.9614 11.92125 5.938649 359.9365
46.99424 11.94301 6.131875 0.005458455
47.02705 11.91149 6.234851 0.08268733
47.06038 11.8346 6.402432 0.03849454
47.08938 11.84333 6.490117 0.04809269
47.11963 11.86193 6.566975 0.01218654
47.14886 11.83272 6.646704 359.9931
47.17931 11.85644 6.68449 359.9604
47.21264 11.92603 6.775126 359.9206
47.23999 11.96576 6.822991 359.8983
47.26781 11.96278 6.872626 359.8653
47.3 11.99068 6.911987 359.8232
47.32645 11.96923 6.949098 359.8168
47.35978 11.9791 7.029511 359.8589
47.38881 11.95925 7.087875 359.8446
47.41582 12.01364 7.174891 359.861
47.44706 12.03991 7.225585 359.8973
47.47598 12.03521 7.274274 359.8866
47.50932 12.03196 7.297771 359.8818
47.53788 12.03868 7.354388 359.7653
47.56975 12.05137 7.369795 359.7749
47.59837 12.02351 7.439173 359.8053
47.62874 11.99168 7.507245 359.7225
47.66208 12.05226 7.478434 359.7903
47.69059 12.0282 7.497863 359.8159
47.71793 11.96658 7.526899 359.7847
47.74549 11.91419 7.517611 359.7756
47.7735 11.91393 7.565827 359.6849
47.80615 11.9357 7.637753 359.6715
47.83949 11.91648 7.750071 359.7669
47.8659 11.80866 7.913319 359.7871
47.89342 11.6369 8.103478 359.9382
47.92546 11.60839 8.252006 0.006216044
47.95248 11.62101 8.472699 0.1321341
47.98581 11.55817 8.595501 0.2352652
48.01915 11.45847 8.761211 0.2191125
48.05085 11.37159 8.844468 0.2404544
48.07941 11.43702 8.92219 0.3022334
48.11274 11.40758 8.995319 0.2856274
48.14607 11.20999 9.049998 0.3126631
48.17507 11.24774 9.071104 0.311386
48.20277 11.30982 9.070337 0.2331883
48.23107 11.37653 9.01167 0.1780951
48.26361 11.33139 8.97338 0.1573512
48.29694 11.38577 8.947829 0.04400724
48.32568 11.44823 8.951589 0.008733315
48.35581 11.24206 8.899138 0.1163233
48.38293 11.25098 8.885368 0.02908704
48.41034 11.34341 8.841787 0.01993403
48.44368 11.40072 8.892699 0.06372125
48.47297 11.37224 8.944015 0.0926481
48.50051 11.33432 8.954326 0.1261775
48.53384 11.35545 8.969419 0.02462408
48.56244 11.35506 8.981767 0.05669223
48.59577 11.32879 8.99881 0.01057556
48.62511 11.33958 9.017317 0.001763803
48.65334 11.3604 9.000238 0.005205038
48.68131 11.31245 9.004663 359.9662
48.70958 11.37747 9.035357 -0.003171446
48.74129 11.43789 9.049961 0.02919712
48.77463 11.39413 8.975111 0.06865834
48.80796 11.33436 8.93694 0.09221523
48.83577 11.30865 8.908761 0.03671404
48.86298 11.23381 8.89507 0.008890625
48.89184 11.20573 8.929087 0.01284541
48.92517 11.21698 9.030791 0.03762051
48.95342 11.2464 9.186749 0.1160252
48.9824 11.24373 9.268512 0.2213694
49.01189 11.2367 9.335986 0.2437737
49.04253 11.31371 9.335635 0.3757929
49.07586 11.26471 9.286783 0.5411925
49.10814 11.24807 9.240179 0.4500105
49.13609 11.25099 9.098508 0.4071248
49.16468 11.21171 8.976031 0.3539227
49.19613 11.24397 8.923336 0.3383166
49.22946 11.20489 8.874803 0.3324486
49.25716 11.22066 8.85326 0.2414526
49.28861 11.18342 8.76276 0.2315964
49.3204 11.13037 8.780975 0.1621692
49.35107 11.12001 8.866628 0.1028835
49.3844 11.10275 8.923266 0.08462025
49.41169 11.19588 9.028015 0.04976162
49.4392 11.18807 9.216669 0.07159613
49.46827 11.16555 9.337152 0.1515827
49.49477 11.19466 9.472911 0.1329423
49.52328 11.19894 9.529205 0.1106126
49.55662 11.12469 9.574078 0.06666627
49.58372 11.1376 9.574562 0.1286396
49.61576 11.17014 9.611145 0.1157778
49.64458 11.23053 9.65218 0.1636805
49.67467 11.24793 9.672304 0.177917
49.70801 11.33294 9.733258 0.06942129
49.74134 11.40767 9.824696 0.04707082
49.77213 11.30687 9.843128 0.0731187
49.80105 11.41984 9.840432 359.9789
49.83086 11.42761 9.836444 0.03202874
49.86419 11.33017 9.889036 0.0913243
49.89753 11.30258 9.943056 0.09548742
49.92548 11.28415 10.08151 0.1474366
49.95245 11.29913 10.19232 0.1030116
49.98117 11.38372 10.318 0.1068807
50.0145 11.41483 10.49161 -0.004474555
50.04173 11.45492 10.59645 0.03521328
50.07251 11.61514 10.71794 359.9417
50.10511 11.61661 10.80358 359.8387
50.13466 11.69716 10.84441 359.7838
50.168 11.88626 10.93359 359.6388
50.20133 11.91412 10.99477 359.588
50.22852 11.91246 11.12534 359.5279
50.25594 12.06053 11.34753 359.3763
50.28588 12.07811 11.44981 359.3705
50.31921 12.0563 11.60814 359.4038
50.34711 12.0648 11.77112 359.3099
50.38045 11.98683 11.93519 359.2483
50.40731 12.15428 12.17715 358.9837
50.43496 12.25769 12.3563 358.9826
50.4683 12.09897 12.6085 359.022
50.49494 12.07195 12.78854 358.8457
50.52391 12.17175 13.05606 358.7242
50.55137 12.12269 13.28972 358.7026
50.58068 12.10549 13.49409 358.6338
50.61151 12.06557 13.78462 358.5516
50.64484 12.13633 14.14291 358.3207
50.67334 12.32749 14.33484 358.3787
50.70256 12.18252 14.55692 358.3245
50.73186 12.12118 14.8129 358.1758
50.76239 12.32829 14.83637 358.2334
50.79573 12.20346 14.94958 358.1077
50.82373 12.11772 15.03992 357.9813
50.85033 12.16345 15.07517 358.0513
50.88324 12.18028 15.18937 357.9384
50.91306 12.23901 15.19113 357.864
50.9464 12.16198 15.26148 357.895
50.97646 12.08825 15.52503 357.5804
51.00671 12.36502 15.61549 357.5964
51.03408 12.22808 15.79671 357.5732
51.06224 12.16104 16.04065 357.3862
51.09558 12.50378 16.23097 357.3366
51.12891 12.57025 16.36316 357.4597
51.15796 12.52912 16.69072 357.3134
51.1913 12.69308 16.73814 357.3155
51.22179 12.81993 16.69609 357.4384
51.25512 12.74756 16.652 357.3488
51.28284 12.65583 16.56612 357.4505
51.30973 12.52476 16.45717 357.5031
51.33709 12.51737 16.38377 357.6157
51.36784 12.45351 16.28189 357.7589
51.39717 12.31842 16.11092 357.7672
51.4305 12.28262 15.9564 357.7832
51.4627 12.26101 15.76356 357.854
51.49148 12.18284 15.57966 357.9501
51.52042 12.00472 15.48378 357.9757
51.55067 11.94125 15.45814 357.953
51.58401 11.95268 15.47014 357.9942
51.61734 11.85492 15.46153 357.916
51.64613 11.72933 15.63711 357.6931
51.67318 11.82819 15.71775 357.7177
51.70544 11.91197 15.75319 357.6176
51.73878 11.71342 15.79185 357.3327
51.76783 11.79399 15.8136 357.1266
51.79566 12.0912 15.76266 357.0591
51.82336 11.90082 15.72497 357.1428
51.85177 11.67264 15.759 357.0617
51.8812 11.71226 15.69264 357.1087
51.91453 11.87964 15.58239 357.2192
51.94786 11.77488 15.5607 357.1558
51.9812 11.71442 15.44757 357.006
52.00857 11.78758 15.35772 356.9604
52.03803 11.68669 15.44064 356.9079
52.07137 11.55398 15.49816 356.8509
52.09965 11.66067 15.48681 356.895
52.1281 11.8298 15.45831 356.8578
52.15662 11.81227 15.41033 356.8366
52.18996 11.73123 15.38867 356.9188
52.22329 11.79169 15.37481 357.0823
52.25301 11.83543 15.3272 357.2944
52.28108 11.87827 15.0974 357.4404
52.30991 11.87354 14.96048 356.9896
52.33922 11.93052 14.7485 356.6619
52.37255 11.95907 14.50215 356.4057
52.40031 11.89447 14.45734 356.0617
52.43195 12.26312 14.3996 356.0007
52.45913 12.14821 14.79108 355.9708
52.48659 12.05681 15.07773 355.9568
52.51572 12.26771 15.38205 356.3517
52.54905 12.46196 15.60031 356.5522
52.58052 12.43424 15.86774 356.5559
52.60982 12.34123 15.88443 356.6633
52.63744 12.28062 15.86539 356.8868
52.67077 12.17661 15.9875 356.7129
52.70411 12.26668 15.8195 357.0649
52.73221 12.05682 15.88895 357.0411
52.76154 12.07257 15.86665 356.9518
52.7897 12.14731 15.68884 357.186
52.81912 11.93343 15.85772 357.0602
52.85246 11.96994 15.91194 357.0081
52.88027 11.96753 16.06062 357.1184
52.91138 11.75428 16.30039 357.1294
52.93932 11.78153 16.48933 357.1104
52.96784 11.92602 16.51558 357.1027
53.00117 12.10318 16.5027 357.2238
53.02814 12.17586 16.47383 357.2982
53.05684 12.35214 16.62683 357.0505
53.08409 12.37957 16.74613 357.0619
53.11107 12.43287 17.06777 356.9551
53.1444 12.55342 17.31876 356.8682
53.17773 12.24249 17.59864 357.0538
53.21016 12.00924 17.71417 357.1685
53.23978 12.5079 17.50354 357.46
53.26793 12.791 17.29148 357.4876
53.30126 12.99659 16.95122 357.3905
53.33459 12.72712 16.51763 357.5144
53.36569 12.31465 16.20225 357.5023
53.39265 12.40797 15.93853 357.5918
53.42315 12.52571 15.64668 357.8102
53.45596 12.45742 15.40328 357.8184
53.4893 12.45369 15.17743 357.7536
53.51953 12.61779 15.02033 357.7462
53.54734 12.70942 14.94897 357.8283
53.57443 12.6103 14.93516 357.8583
53.60305 12.61558 14.97127 357.8767
53.632 12.66778 15.05833 357.9985
53.66533 12.79762 15.0652 358.1096
53.69265 12.9434 15.06715 358.1896
53.72021 12.93098 14.99437 358.0461
53.75354 12.91458 14.92093 358.0347
53.78309 12.78213 14.8365 358.0338
53.81642 12.69843 14.88884 357.8944
53.8447 12.8246 14.82871 357.9037
53.87254 12.72859 14.87434 357.9014
53.90115 12.78938 14.79651 357.9173
53.92935 13.00648 14.77844 357.938
53.96268 13.2566 14.66544 357.9725
53.99602 13.2916 14.3973 358.0192
54.02512 13.00271 13.50276 358.1725
54.05243 13.04414 12.33861 358.2706
54.08433 13.25968 11.26189 358.1667
54.11766 13.66783 9.845355 357.8585
54.14836 13.98389 8.403441 357.6085
54.17799 14.2139 6.93659 357.4037
54.20968 14.32713 5.837801 357.3166
54.23814 14.29949 4.969833 357.1205
54.27147 14.10466 4.629089 357.0809
54.30343 13.96165 4.39156 357.1139
54.33146 14.15538 4.192252 357.3349
54.3602 14.2159 4.244561 357.4858
54.38794 14.28307 4.499267 357.6975
54.42128 14.34017 4.651159 357.9224
54.45045 14.27992 4.905717 358.1672
54.47715 14.23484 5.238785 358.2072
54.50779 14.33934 5.69697 358.3536
54.54005 14.33786 6.141127 358.4596
54.57339 14.25906 6.821792 358.5838
54.60616 14.24907 7.711597 358.8002
54.63297 14.09338 8.631325 359.1751
54.66249 14.06811 9.251481 359.3175
54.68985 13.95495 9.747968 359.5163
54.72318 13.85881 10.01833 359.6187
54.75304 13.81758 10.26929 359.729
54.78637 13.87859 10.48698 359.8411
54.81439 13.79872 10.77108 359.8112
54.84513 13.705 11.07181 359.8552
54.87847 13.6921 11.32797 359.9232
54.90932 13.67794 11.51592 359.9187
54.93821 13.71417 11.86885 -0.003835098
54.96603 13.71405 12.01681 0.01578046
54.99414 13.71982 12.04489 359.968
55.02747 13.75684 12.08012 359.9324
55.06081 13.7358 12.10563 359.8686
55.0881 13.74595 11.98976 359.8478
55.11492 13.72247 11.94899 359.8743
55.14389 13.64055 11.8505 359.7796
55.17722 13.64713 11.66225 359.7585
55.20471 13.66272 11.24711 359.6148
55.23248 13.5983 10.65216 359.2169
55.26116 13.61675 10.32169 359.1356
55.28822 13.69287 9.969495 358.9962
55.32156 13.73875 9.817621 358.9185
55.34963 13.71693 9.846049 358.8842
55.37699 13.72711 10.0417 359.0134
55.40997 13.91552 10.46438 359.0687
55.44029 13.90068 11.04578 359.3053
55.47362 13.86575 11.57544 359.3729
55.50641 13.91645 11.88311 359.4326
55.53658 14.01784 12.29766 359.4816
55.56324 14.01014 12.43666 359.5042
55.59099 13.96834 12.57818 359.5012
55.62432 13.9374 12.64002 359.4975
55.65672 13.88737 12.73837 359.4085
55.68387 13.91787 12.79844 359.5803
55.7172 13.91633 12.81412 359.612
55.74815 13.84816 12.78651 359.5643
55.78149 13.86796 12.73326 359.515
55.80942 13.97738 12.67777 359.5275
55.83696 14.1963 12.56408 359.6222
55.87029 14.13694 12.56112 359.6671
55.89827 14.10935 12.58936 359.6528
55.9316 14.15276 12.72609 359.7939
55.95974 14.17216 12.91088 359.8169
55.98744 14.3615 13.30997 359.8655
56.01805 14.41489 13.71002 0.107501
56.04571 14.35876 14.06523 0.3851066
56.07549 14.41971 14.23105 0.5359654
56.10883 14.30016 14.56825 0.4895968
56.13984 14.31699 14.79578 0.5078791
56.1685 14.31814 14.96289 0.664004
56.19984 14.3522 15.07344 0.5779954
56.22929 14.53335 15.16072 0.7086183
56.26263 14.3857 15.1213 0.8980188
56.29123 14.23077 15.12602 0.9094692
56.32114 14.31746 15.00412 1.055009
56.35447 14.34562 15.02498 1.110907
56.38198 14.14233 15.03916 1.185923
56.41532 13.99798 15.04268 1.223288
56.44394 13.96481 15.05159 1.105796
56.4714 13.93598 15.06128 1.050931
56.50082 13.8043 15.06414 1.030251
56.52806 13.66379 15.06194 0.9601557
56.56139 13.70713 15.06914 0.9601524
56.58955 13.69201 15.06885 0.9395841
56.61715 13.69022 15.05071 0.9807848
56.64521 13.66279 15.00458 0.9460425
56.67855 13.6689 14.84735 0.8929296
56.71188 13.73906 14.53192 0.7965239
56.73939 13.76219 14.05782 0.7188924
56.7671 13.80416 13.40024 0.4929225
56.79528 13.94332 12.67307 0.331861
56.82559 14.03358 12.03463 0.2710078
56.85892 14.0501 11.09558 0.1109776
56.88877 14.18573 10.14612 359.872
56.92076 14.34169 9.179562 359.5422
56.94773 14.38477 8.35416 359.3372
56.97939 14.39545 7.885786 359.1922
57.01272 14.42185 7.233833 359.2632
57.03944 14.3816 6.604044 359.1519
57.06739 14.48909 6.247311 359.1027
57.09614 14.57581 6.010085 359.07
57.12364 14.5486 5.744007 359.0021
57.15176 14.52008 5.700998 358.9954
57.18509 14.51679 5.683786 359.1724
57.21475 14.60822 5.752188 359.2075
57.24202 14.74189 5.816935 359.288
57.26911 14.9316 5.911364 359.3447
57.2998 14.97154 6.055033 359.3424
57.33314 14.97068 6.20809 359.3766
57.3659 14.98757 6.284997 359.3855
57.39923 15.09133 6.265214 359.4012
57.42674 14.9813 6.252965 359.3783
57.45917 14.88483 6.188427 359.2911
57.4925 15.06734 6.083152 359.361
57.52583 15.19743 6.010893 359.3399
57.55228 15.40782 5.726179 359.3122
57.57977 15.22604 5.687313 359.3927
57.60887 14.94386 5.637803 359.4362
57.6422 14.73364 5.563868 359.3841
57.67075 14.4944 5.550375 359.3496
57.69804 14.40188 5.613013 359.2589
57.72551 14.72613 5.742089 359.2777
57.75884 14.62979 5.9519 359.2086
57.79217 14.33767 6.547985 359.4713
57.81857 15.15133 7.162683 359.8164
57.8464 15.59632 7.948019 0.2099896
57.87586 15.26527 8.579027 0.4139085
57.90425 14.67999 9.281983 0.6476384
57.93732 14.60726 9.775314 0.7380507
57.97066 14.55508 9.915729 0.8017077
58.00093 14.71606 9.940238 0.7994895
58.03023 15.04926 9.519964 0.4420044
58.05925 15.03156 9.040627 0.241594
58.08979 14.75262 8.746494 0.1358442
58.12312 14.45349 8.320283 359.8578
58.1552 14.93155 7.968901 359.7168
58.18177 15.76316 7.880054 359.796
58.20896 15.52915 7.975883 359.8461
58.23651 14.75523 8.173961 359.7798
58.26984 14.85137 8.407601 359.8311
58.29858 15.20773 8.946427 359.9722
58.32921 15.26946 9.482446 359.9748
58.35772 15.6362 9.994287 0.07380624
58.38546 15.55627 10.68308 0.2224665
58.41879 15.86232 11.23421 0.412969
58.44566 15.8887 11.86967 0.7258518
58.47393 15.45728 12.45529 0.9200856
58.50171 15.24334 12.74589 1.047179
58.53011 15.29692 12.8442 1.006539
58.56344 15.52594 12.80821 0.904601
58.59105 15.67532 12.64843 0.9263248
58.61826 15.89717 12.45093 0.9353322
58.647 15.7248 12.09985 0.8614191
58.67894 15.93297 11.55238 0.7359748
58.71228 16.60936 10.57714 0.47868
58.74002 16.64492 8.728831 359.989
58.7696 16.89086 6.643143 359.331
58.80027 18.47706 4.86289 358.8875
58.82859 20.55737 2.965887 358.8752
58.86193 21.50131 1.785315 358.9909
58.89486 21.35452 0.4096125 358.4111
58.92671 22.29144 359.2346 358.0641
58.95761 22.60483 358.6569 357.9042
58.98555 21.5886 358.3951 357.9765
59.01888 21.19971 358.6229 358.2275
59.04692 21.26418 359.076 358.5132
59.07498 21.74012 359.8036 358.9266
59.10241 21.67994 0.7957975 359.3782
59.13012 21.61089 1.625034 359.7476
59.15721 21.49507 2.834603 0.2185819
59.19054 21.41901 3.751451 0.5428235
59.21816 21.11087 5.107611 1.068011
59.2485 20.53226 6.224313 1.605267
59.28046 19.91808 6.986237 1.909559
59.31098 19.3344 7.497061 2.03096
59.34431 19.42508 7.790329 1.945309
59.37259 19.54153 7.790515 1.711171
59.40593 19.54445 7.46915 1.505664
59.43309 19.48669 6.909039 1.268041
59.46102 19.33966 6.809072 1.2176
59.49435 19.30265 6.781813 1.094254
59.52131 19.14897 6.799583 1.041973
59.54873 19.27199 6.893888 0.8694974
59.57951 19.06377 7.035933 0.7562495
59.60759 18.39504 6.932625 0.4464464
59.64092 18.71672 6.860958 0.4579973
59.6679 18.82998 7.076743 0.5842562
59.69522 18.69547 7.351854 0.481034
59.72296 19.66379 7.454745 0.5735685
59.75043 19.75525 7.431164 0.8099935
59.77948 19.58841 7.549541 0.8979319
59.81282 19.37995 7.697453 1.156653
59.84069 19.41311 8.000463 1.216669
59.86835 19.18508 8.297197 1.215967
59.9 19.23018 8.600234 1.284326
59.92847 19.47141 9.085726 1.624558
59.96181 19.0769 9.468367 1.73736
59.99414 18.97489 9.647812 1.804266
60.02254 19.04059 9.766953 1.753773
60.05109 18.84026 9.808003 1.715606
60.08155 18.43712 9.807172 1.657742
60.11488 18.47806 9.91755 1.677047
60.14305 18.66073 10.00981 1.614817
60.17402 19.26146 9.913193 1.718812
60.20735 19.56706 9.761712 1.777147
60.23565 19.73322 9.453031 1.759084
60.26898 19.6133 8.846451 1.640193
60.29953 19.49485 7.965401 1.425845
60.32744 19.4924 6.969821 1.125758
60.35511 19.33308 5.765123 0.8380867
60.3881 19.28578 4.886596 0.6012673
60.42143 19.31479 3.810388 0.4535988
60.44947 19.2477 2.937164 0.1477292
60.4768 19.35626 2.215545 359.8127
60.50544 19.44478 1.804145 359.6493
60.53272 19.4889 1.684439 359.6321
60.56321 19.56494 1.681087 359.6214
60.59654 19.518 1.799459 359.6417
60.62389 19.39395 2.207971 359.8618
60.65301 19.32883 2.878196 0.1249372
60.68299 19.24301 3.843098 0.5169573
60.71157 19.18173 4.554708 0.8361033
60.74491 18.97046 5.749401 1.340113
60.77156 18.7794 6.586419 1.676839
60.79998 18.51629 7.946485 2.34784
60.82807 18.38409 8.484672 2.586092
60.85854 18.22142 8.909899 2.697801
60.88624 18.11594 9.206618 2.68487
60.91957 18.05119 9.266965 2.710654
60.95233 18.09667 9.095272 2.520549
60.98105 18.1351 8.86596 2.320026
61.00951 18.08322 8.456783 2.210576
61.03696 18.04048 8.311913 2.187617
61.07029 18.16112 8.171338 2.08893
61.09738 18.219 8.069874 1.995656
61.1237 18.29544 7.947864 1.945231
61.15298 18.25271 7.960261 1.923302
61.18512 18.19773 7.937253 1.70536
61.21845 18.28456 7.837111 1.740137
61.24964 18.28733 7.774726 1.757924
61.27805 18.1158 7.825667 1.534112
61.30631 18.35804 7.833301 1.535224
61.33699 18.46962 7.917511 1.613806
61.37033 18.39817 8.087951 1.77382
61.40117 18.41864 8.160668 1.911865
61.42896 18.55883 8.119272 1.904321
61.45802 18.567 8.064898 1.799337
61.48616 18.60555 8.026895 1.864711
61.5195 18.56999 7.914912 1.822339
61.54845 18.56155 7.827326 1.792212
61.57612 18.72274 7.66976 1.805151
61.60323 18.76174 7.665462 1.83249
61.63309 18.90197 7.563262 1.821653
61.66087 19.17912 7.358823 1.751306
61.6942 19.36593 6.830781 1.465781
61.72129 19.46124 6.138152 1.269269
61.7479 19.48463 5.227417 1.118223
61.7756 19.47136 4.529447 0.8927044
61.80377 19.33217 3.664658 0.5981191
61.8371 19.30669 3.119832 0.5382531
61.86731 19.2472 2.545622 0.5663714
61.89678 19.08488 1.959333 0.4541663
61.92392 19.06007 1.596147 0.5216523
61.95723 19.02597 1.305285 0.6752207
61.99056 18.98412 1.171259 0.739646
62.02163 19.10143 0.9288618 0.891021
62.04903 19.05143 0.8610028 1.0046
62.07806 18.88379 0.9477305 1.051835
62.10389 18.77437 1.167412 1.291987
62.13509 18.69896 1.349034 1.511625
62.16842 18.45143 1.63031 1.759132
62.20078 18.33362 1.757905 1.988639
62.23278 18.39984 1.71681 2.087455
62.2602 18.28029 1.640867 1.957488
62.28722 18.15157 1.514718 1.746165
62.32055 18.28199 1.350767 1.692298
62.34713 18.31049 1.007998 1.623224
62.37419 18.05982 0.6586816 1.30166
62.40269 18.16157 0.3623737 1.059914
62.43603 18.25572 359.9098 0.9017385
62.46936 18.04737 359.5932 0.5534531
62.49926 18.04196 359.42 0.2077864
62.52829 18.13119 359.1445 0.1425275
62.55583 18.2569 358.9906 0.1175685
62.58461 18.35817 358.8997 -0.002302749
62.61795 18.22246 358.8202 0.02526304
62.64521 17.95235 358.8162 0.1485659
62.67413 17.643 358.9021 0.3945673
62.70542 17.61123 358.912 0.4311889
62.73379 17.76255 358.8441 0.6269891
62.76712 17.77939 358.7157 0.6435629
62.79976 17.81092 358.6035 0.5386999
62.83126 18.2674 358.3176 0.5165793
62.85923 18.0335 358.2218 0.4372851
62.88747 17.76904 358.089 0.5123586
62.92081 17.77742 358.0209 0.4629812
62.95165 17.92295 358.0665 0.523784
62.98498 17.87287 358.1638 0.6804441
63.01101 17.80576 358.2716 0.7217718
63.03815 17.90619 358.374 0.7396383
63.07148 18.12372 358.4584 0.7771022
63.10062 18.20602 358.6654 0.820321
63.12823 18.23289 358.9393 0.7423406
63.15554 18.49079 359.0655 0.7264838
63.18586 18.74648 359.0866 0.6438445
63.21919 18.70609 359.0675 0.712599
63.24658 18.54681 358.9936 0.6001256
63.27362 18.51312 358.8562 0.4085592
63.30225 18.54265 358.8365 0.4479779
63.33296 18.41462 358.8228 0.3813528
63.36629 18.29415 358.8978 0.1949078
63.39899 18.29454 358.9021 0.2643263
63.43135 18.46416 358.9276 0.1247737
63.45927 18.60201 359.0228 0.1190809
63.49016 18.5784 359.1552 0.05843785
63.52349 18.62516 359.3906 359.9509
63.55047 18.51974 359.7191 0.07490858
63.57799 18.35078 0.1532788 359.9818
63.60656 18.19151 0.4499206 359.9129
63.63357 18.03409 0.8252991 359.881
63.66198 17.95736 1.098676 359.8441
63.69531 17.88095 1.346448 0.08938684
63.72226 17.66388 1.595091 0.168033
63.75042 17.69052 1.814443 0.1315298
63.78014 17.83279 1.843759 0.276004
63.80774 17.76183 1.943455 0.1892376
63.84108 17.71021 1.939867 0.1724381
63.87061 17.8231 1.834596 0.2620023
63.90394 17.76677 1.646172 0.09973186
63.93116 17.73543 1.566691 359.955
63.96258 17.77359 1.579985 0.006674713
63.99591 18.04626 1.483528 0.197113
64.0238 18.14225 1.391914 0.2687321
64.05161 18.26293 1.361851 0.08177512
64.07953 18.43601 1.300279 0.0612815
64.10758 18.46316 1.17999 0.2448699
64.13737 18.29505 1.218325 0.2712681
64.17071 18.33768 1.298132 0.2314971
64.19814 18.41626 1.287789 0.2487384
64.22628 18.22279 1.350029 0.2019567
64.25387 18.3681 1.401181 359.9488
64.28081 18.2631 1.36177 359.9767
64.31414 18.21319 1.330797 359.8942
64.3411 18.18251 1.305564 359.7682
64.3707 18.08023 1.092708 359.8653
64.40066 18.23741 1.14402 359.6647
64.4279 18.19209 1.11287 359.6224
64.46124 18.18004 1.008117 359.7635
64.49458 18.18936 1.044439 359.5892
64.52119 18.17344 1.000056 359.5502
64.54865 18.05375 0.8753479 359.6769
64.57635 18.07228 0.8006859 359.5192
64.60313 18.09971 0.723193 359.3263
64.63375 18.12663 0.6197368 359.2826
64.66708 18.19099 0.6043592 359.2047
64.6941 18.1933 0.6216178 359.1041
64.72586 18.08787 0.5815265 359.1526
64.75336 18.19957 0.5166922 359.0484
64.77977 18.19771 0.4495806 358.985
64.80726 18.12576 0.379479 358.8734
64.84059 18.13244 0.251813 358.87
64.86787 18.14992 0.2439623 358.8356
64.89602 18.14117 0.4330538 358.7784
64.92305 18.13189 0.5245827 358.8632
64.94924 18.0454 0.6743878 358.9078
64.97884 18.02598 0.7928508 358.9409
65.01218 18.0312 0.8082874 358.8602
65.03915 18.05575 0.7548558 358.8076
65.07248 18.0456 0.7691894 358.7996
65.10072 18.06147 0.8999291 358.7848
65.12772 18.10992 0.9157535 358.8213
65.16106 18.01595 1.014797 358.9362
65.18808 17.98783 1.021418 359.0507
65.21549 17.85006 0.9972151 359.111
65.24331 17.77382 0.9581419 359.025
65.27032 17.78643 0.9246965 358.9609
65.29671 17.77254 0.9324012 358.9232
65.33005 17.74222 0.9584242 358.8829
65.36004 17.79912 1.007235 358.8335
65.3921 17.84249 1.054603 358.9113
65.42198 17.77221 0.9643861 358.884
65.45128 17.82571 0.8974191 358.8102
65.48461 17.83524 0.876718 358.7877
65.51245 17.79572 0.7871743 358.9419
65.54093 17.76695 0.7079503 358.9608
65.56892 17.74877 0.6762806 358.9207
65.59804 17.77152 0.6529463 358.9258
65.62833 17.78282 0.6557288 358.9261
65.66167 17.73285 0.6998639 358.9633
65.68909 17.71581 0.7335452 358.9912
65.71647 17.60936 0.7821478 358.9735
65.74294 17.43174 0.8145497 358.972
65.77061 17.38481 0.8490094 359.0167
65.79777 17.29632 0.8408077 358.9509
65.8311 17.00669 0.8632421 358.8257
65.85867 16.53696 0.9071212 358.6779
65.8907 16.15272 1.133119 358.7868
65.91746 15.81969 1.200261 358.9042
65.94602 15.63721 1.057743 358.938
65.97935 15.62921 1.019462 358.8501
66.00751 15.51468 1.165726 358.6488
66.03952 15.31626 0.9622613 358.7632
66.06797 15.29727 0.8294132 358.7411
66.09789 15.22715 0.5422413 358.6179
66.13122 15.2023 0.03384373 358.4823
66.16313 15.5411 359.7801 358.5065
66.19046 15.32764 359.499 358.5883
66.21897 15.24822 359.3673 358.5414
66.24631 15.75719 359.2596 358.4214
66.27964 15.67325 359.3467 358.4824
66.30808 15.35164 359.5444 358.5401
66.33494 15.23322 359.6496 358.4893
66.36128 15.65418 359.5167 358.5441
66.38971 15.94858 359.3187 358.8821
66.41815 16.10154 359.1521 359.1369
66.45148 16.37458 358.879 359.2935
66.48229 16.37092 358.459 359.2798
66.51369 16.25193 358.2816 359.0099
66.54468 16.31854 358.1254 358.8921
66.57801 16.28313 357.9667 358.6874
66.61134 16.40517 357.9016 358.6393
66.64468 16.50455 357.88 358.6153
66.67619 16.33624 357.8914 358.5461
66.70952 16.26254 357.9732 358.3515
66.74097 16.28505 358.0163 358.2576
66.77431 16.23624 358.0632 358.1821
66.80291 16.2071 358.0821 358.1058
66.83166 16.23806 357.9744 358.2583
66.8621 16.21344 357.8947 358.3143
66.88995 16.24714 357.6118 358.3738
66.92329 16.45402 357.3467 358.4649
66.95305 16.44569 357.2008 358.4424
66.98638 16.23307 357.2174 358.2102
67.0135 16.44287 357.0558 358.274
67.04174 16.4799 357.0457 358.1646
67.07507 16.54895 356.9029 358.2627
67.1017 16.53 356.7285 358.3238
67.13205 16.32984 356.5839 358.2927
67.15929 16.29572 356.4616 358.3035
67.18581 16.069 356.3909 358.2836
67.21914 15.48544 356.4415 358.2278
67.25127 15.30331 356.5318 358.2621
67.27837 15.51127 356.3514 358.6105
67.30582 15.38433 356.2996 358.5571
67.33458 15.72744 356.243 358.6168
67.36791 15.95735 356.1311 358.6632
67.3957 15.87535 355.8211 358.8203
67.42447 14.99134 355.7749 358.7522
67.45485 15.26445 355.6293 358.6968
67.48232 15.30668 355.4388 358.7771
67.51565 15.33099 355.2475 358.7513
67.54274 15.02422 355.0117 358.8752
67.57584 14.83979 354.36 359.1596
67.60516 14.67459 353.9068 359.1955
67.6348 14.55762 353.644 359.0351
67.66814 14.55907 353.309 358.9228
67.6965 13.99099 353.2211 358.8878
67.72399 13.83606 353.2024 359.0406
67.7522 14.39159 353.0176 359.0908
67.78116 14.50314 352.7907 359.1859
67.81449 14.48815 352.8168 359.1577
67.84209 14.61989 352.8469 359.1553
67.87366 15.0183 352.875 359.2694
67.89941 15.61385 353.163 358.9715
67.92711 15.5585 353.0517 359.2151
67.96044 15.12229 352.3736 0.09399301
67.99377 15.67398 351.7485 0.2165927
68.02167 16.2675 351.3013 359.774
68.055 16.45972 350.6996 359.1697
68.08138 15.93132 349.9088 358.5551
68.11079 16.15558 349.5158 358.3319
68.14412 16.69198 349.0359 358.2946
68.17204 16.36935 348.4591 358.5957
68.20014 15.79136 348.2325 358.8473
68.2285 16.06786 348.1677 359.1511
68.2607 16.69147 348.4454 358.6707
68.29403 16.86455 349.0177 358.0183
68.32281 16.88895 349.6043 357.9258
68.3502 16.5951 350.3866 358.1991
68.37733 16.53633 350.541 358.2794
68.40983 16.7972 350.8402 358.7785
68.44316 16.4789 351.127 359.0523
68.4719 16.36057 351.139 358.8369
68.50185 15.17457 350.4602 359.3237
68.53519 14.11247 350.199 358.8859
68.56728 14.88472 350.0368 357.4153
68.60062 14.48855 349.798 358.3065
68.62782 14.33786 349.5415 359.2289
68.65918 14.10733 348.7985 0.2957969
68.6896 14.14737 348.9519 0.07627133
68.71722 14.68263 348.6291 0.246288
68.75056 14.56112 347.8747 0.8319839
68.78258 14.90531 348.0717 0.4030897
68.80939 15.17333 348.2145 0.3812726
68.83637 15.57905 348.633 0.2025106
68.86431 15.49465 348.7557 0.2664254
68.89117 15.21559 348.9791 0.5855053
68.9245 15.12956 349.3071 0.5703307
68.9524 14.48126 349.4906 1.100935
68.97868 13.98104 349.0891 1.799526
69.00599 14.12993 348.1516 2.122712
69.03824 14.57222 347.806 1.90199
69.07157 15.16949 347.6818 0.7236342
69.10165 15.09756 347.5266 0.06374748
69.13012 14.88308 347.0725 0.2671342
69.15866 14.29034 346.6449 0.2734081
69.18701 14.57107 346.4565 0.1321339
69.22034 15.39847 346.28 359.9804
69.24711 15.88812 346.0036 359.6153
69.27471 16.31965 345.6971 359.6276
69.30475 16.14431 345.5479 359.6281
69.33221 15.38918 345.6399 358.8858
69.36554 15.56488 345.6259 358.4265
69.39286 16.23318 345.711 358.2311
69.4232 16.12024 345.9152 357.8844
69.45087 16.08691 346.3741 357.4043
69.48271 15.9583 346.8755 357.3536
69.51604 15.5828 347.3701 357.6051
69.54833 16.10544 347.537 358.0084
69.57639 15.86098 347.3123 357.9258
69.60399 15.17666 347.1665 357.9254
69.63691 14.8487 346.7854 358.0045
69.67025 14.85731 346.6612 357.8402
69.69609 14.64686 346.6323 357.7599
69.72348 14.97427 346.2731 357.9119
69.75187 15.45741 345.7456 357.8012
69.78236 15.98299 345.5246 357.4708
69.80994 16.43392 345.2783 356.9375
69.84327 16.00855 345.1003 357.0483
69.86964 15.17666 345.0218 357.232
69.89684 15.08955 345.0315 357.348
69.92901 14.7959 345.0861 357.4155
69.95537 14.57346 345.1114 357.5394
69.9887 14.76597 344.9484 357.6081
70.01691 15.06001 344.8052 357.6136
70.04593 15.1669 344.8358 357.5334
70.07571 15.34121 344.9774 357.5154
70.10495 14.95216 345.2484 357.6974
70.13828 14.40672 345.4985 357.7848
70.17069 14.04523 345.7731 357.9623
70.20251 13.8577 345.9485 358.2523
70.22906 14.00508 345.8952 358.1828
70.25745 14.23125 345.7669 358.1479
70.29078 14.24071 345.532 357.9724
70.31733 14.23208 345.298 357.8369
70.34522 14.18334 344.9336 357.6731
70.37221 14.32236 344.9417 357.4955
70.39881 14.87235 344.7791 357.6926
70.42698 14.85199 344.7543 357.7377
70.46031 14.79048 344.8874 357.4886
70.48644 14.92904 344.9438 357.4286
70.51391 15.15274 344.966 357.4584
70.54532 15.26293 345.0095 357.5058
70.57226 15.41781 345.1303 357.6
70.60143 15.48851 345.1273 357.7466
70.63477 15.41047 345.1377 357.8381
70.66425 15.26035 345.203 357.9862
70.69453 15.20517 345.4536 357.8965
70.72251 15.54721 345.5324 358.087
70.75056 15.7796 345.5107 358.2605
70.7839 15.88619 345.5016 358.3539
70.81618 15.91373 345.4658 358.3099
70.84567 15.85827 345.5982 357.9152
70.87544 16.02279 345.7456 357.728
70.90347 16.12925 345.7765 357.6657
70.9368 16.169 345.8711 357.6886
70.96425 16.26481 345.9725 357.7359
70.99466 16.24012 346.0871 357.9179
71.02077 16.16508 346.1837 357.9039
71.04967 16.24658 346.2964 357.9084
71.07957 16.26851 346.2928 358.0958
71.11291 16.17071 346.3203 358.1905
71.14155 16.21292 346.2795 358.1607
71.17292 16.18124 346.1264 358.1557
71.19981 16.01779 346.142 358.1196
71.22775 15.85265 346.1307 358.1585
71.26109 15.76799 346.2018 358.1017
71.29123 15.63485 346.4112 358.1119
71.32153 15.67488 346.6061 358.2013
71.34864 15.75444 346.6951 358.172
71.37519 15.83136 346.6934 358.2032
71.40852 15.79184 346.6801 358.1658
71.44003 15.82398 346.6333 358.1404
71.46661 15.95276 346.55 358.1286
71.4941 15.91015 346.5273 358.1111
71.52244 15.92364 346.4569 358.0734
71.55577 16.02455 346.3955 358.1028
71.58458 15.97242 346.3431 358.1053
71.61375 16.00026 346.3785 358.1163
71.64096 16.05685 346.4171 358.1368
71.67045 16.11531 346.3835 358.1598
71.70378 16.10807 346.3674 358.2386
71.73176 16.07244 346.3124 358.2319
71.76509 16.11456 346.2427 358.2129
71.79283 16.11332 346.1225 358.1933
71.82001 16.08 346.1256 358.1219
71.85335 16.04651 346.0944 358.2124
71.88347 16.04591 346.1021 358.22
71.9103 16.04614 346.0622 358.1603
71.93933 16.04633 346.0657 358.2046
71.96689 15.97549 346.161 358.266
71.99865 15.96203 346.1866 358.2996
72.03198 15.99117 346.187 358.2854
72.05916 16.00064 346.1886 358.2215
72.08723 15.90979 346.1348 358.2874
72.11888 15.9212 346.1897 358.2565
72.14986 16.02451 346.188 358.257
72.1832 16.04996 346.1673 358.2646
72.21124 16.02048 346.1807 358.2676
72.24072 16.11547 346.2044 358.288
72.27402 16.12969 346.1689 358.3109
72.30331 16.08278 346.1505 358.3291
72.33664 16.12668 346.115 358.3263
72.36359 16.1432 346.0901 358.3203
72.39093 16.10583 346.0381 358.2974
72.41992 16.10589 346.0197 358.2567
72.44922 16.14403 346.0265 358.2386
72.48131 16.11653 346.1042 358.2416
72.51464 16.10729 346.1294 358.3045
72.54508 16.07931 346.171 358.268
72.5727 16.12947 346.1418 358.2379
72.60175 16.07589 346.0784 358.2417
72.62885 16.09933 346.1081 358.1572
72.66218 16.17351 346.14 358.1613
72.69109 16.15902 346.1506 358.2335
72.72442 16.08012 346.181 358.1938
72.75208 16.03503 346.1612 358.2023
72.78252 16.01469 346.1564 358.2328
72.81586 15.97541 346.1634 358.2111
72.8475 15.96893 346.1703 358.2574
72.87597 16.01109 346.1806 358.2025
72.90264 16.01387 346.2024 358.272
72.93113 15.98041 346.2333 358.2786
72.96446 15.98489 346.194 358.2493
72.9912 16.06457 346.1566 358.2379
73.01873 16.07726 346.1628 358.2447
73.04713 16.08498 346.23 358.2795
73.07828 16.10462 346.2564 358.2849
73.11161 16.10711 346.2801 358.3413
73.1399 16.06176 346.2587 358.393
73.16607 16.08227 346.2512 358.3873
73.19412 16.08812 346.2397 358.3737
73.22274 16.09125 346.2329 358.384
73.25005 16.04016 346.2448 358.3825
73.28338 16.06925 346.2697 358.3654
73.31609 16.12928 346.2486 358.3825
73.3467 16.09079 346.2644 358.4184
73.37654 16.08242 346.2787 358.4447
73.40541 16.14168 346.2261 358.4521
73.43874 16.24208 346.2645 358.3366
73.46622 16.18722 346.286 358.4154
73.49763 16.1491 346.215 358.4222
73.53094 16.22677 346.2023 358.321
73.56072 16.22676 346.1624 358.3831
73.59406 16.1705 346.2021 358.3929
73.62513 16.17009 346.1973 358.4037
73.65525 16.18717 346.2122 358.3934
73.68357 16.10971 346.2381 358.3478
73.71136 16.10048 346.2162 358.3748
73.7447 16.15756 346.2178 358.2951
73.7736 16.12714 346.2122 358.2549
73.80087 16.13649 346.2338 358.2432
73.82915 16.13163 346.2719 358.2644
73.8579 16.16826 346.3098 358.2796
73.89124 16.18264 346.3216 358.3146
73.91879 16.16228 346.3428 358.3223
73.94695 16.1727 346.3001 358.308
73.97427 16.17959 346.267 358.3352
74.00237 16.20514 346.2313 358.3277
74.03571 16.2203 346.2085 358.3097
74.06689 16.21405 346.2112 358.3549
74.09715 16.22701 346.2178 358.3143
74.125 16.20747 346.2287 358.3205
74.15627 16.19113 346.2083 358.3524
74.18961 16.16315 346.2302 358.3777
74.22294 16.16067 346.1961 358.3787
74.25057 16.16558 346.3322 358.3037
74.27918 16.06586 346.3789 358.4792
74.31177 16.04897 346.4095 358.4954
74.3451 16.13174 346.403 358.3962
74.37695 16.18972 346.3606 358.4326
74.4051 16.10015 346.3629 358.4089
74.43256 16.11613 346.351 358.4569
74.46368 16.12625 346.3401 358.4725
74.49701 16.1154 346.378 358.328
74.52397 16.11343 346.3724 358.3878
74.55249 16.1369 346.3751 358.406
74.5803 16.12264 346.3748 358.3596
74.6068 16.18558 346.3568 358.3276
74.63484 16.18671 346.3399 358.3354
74.66817 16.17038 346.3384 358.3651
74.69962 16.16794 346.3372 358.4062
74.7267 16.1492 346.3447 358.3988
74.75647 16.17239 346.3489 358.4288
74.78872 16.17074 346.3087 358.4279
74.82205 16.18993 346.2795 358.4445
74.85239 16.17945 346.2324 358.4337
74.87961 16.18883 346.23 358.4563
74.90804 16.19406 346.26 358.4358
74.9375 16.19224 346.2939 358.4423
74.97083 16.2125 346.3021 358.4993
75.00303 16.24325 346.3033 358.5233
75.03407 16.23657 346.2823 358.5384
75.06076 16.23721 346.3335 358.4296
75.08847 16.29507 346.3409 358.3806
75.1218 16.27651 346.3143 358.5567
75.14896 16.27588 346.2891 358.595
75.17776 16.28636 346.277 358.5089
75.20512 16.32433 346.2726 358.5323
75.23442 16.27902 346.2719 358.567
75.26775 16.31969 346.2413 358.5707
75.30109 16.39662 346.2326 358.6696
75.3318 16.58506 346.2569 358.6227
75.3644 16.85812 346.2318 358.6759
75.39512 17.05348 346.1955 358.686
75.42845 16.73305 346.0272 358.5673
75.45961 16.41321 345.8139 358.4576
75.4881 16.07798 345.4017 358.2311
75.51486 15.87747 345.1773 358.1543
75.54314 15.96006 344.4975 357.9945
75.57648 15.98468 343.9938 357.9429
75.60314 15.84077 343.3079 357.7832
75.63006 15.57213 342.7606 357.7698
75.6625 15.40531 342.2696 357.7765
75.69106 15.26959 341.8116 357.8369
75.72439 15.13378 341.5794 357.7787
75.75755 15.30982 341.263 357.6718
75.78432 15.30778 340.9604 357.7306
75.8153 15.34221 340.9029 357.8097
75.84455 15.41113 340.9386 357.894
75.87788 15.4419 340.9675 357.908
75.90633 15.37502 341.192 357.9827
75.93478 15.20528 341.4905 358.2883
75.96201 14.91088 341.5562 358.3249
75.99002 14.73063 341.5083 358.2833
76.02335 14.97015 341.485 358.2406
76.0509 15.10432 341.4537 358.2588
76.07767 15.12318 341.4652 358.1532
76.10844 15.20186 341.5147 358.2225
76.1385 15.19307 341.6717 358.301
76.17183 15.16779 341.9074 358.3275
76.20065 15.16878 342.3205 358.4371
76.2269 15.2359 342.6823 358.5242
76.25561 15.24464 343.0189 358.5405
76.28387 15.22598 343.2068 358.5305
76.31064 15.21907 343.4634 358.5176
76.34397 15.25244 343.5908 358.5227
76.37107 15.25583 343.6454 358.4811
76.4026 15.25906 343.6909 358.4485
76.43114 15.33703 343.5997 358.4687
76.46114 15.34565 343.4348 358.3947
76.49447 15.3287 343.1967 358.2605
76.5278 15.27041 342.9666 358.2565
76.55569 15.18574 342.4782 358.1357
76.58314 15.11082 342.234 357.993
76.61099 15.08234 342.0161 357.9408
76.64433 15.07628 341.9083 357.9505
76.67221 15.04882 341.7395 358.0101
76.70352 15.05527 341.5718 357.9898
76.73144 15.03183 341.41 357.8723
76.76157 15.03817 341.3705 357.7983
76.79491 14.98743 341.2791 357.8715
76.82554 14.98689 341.1561 357.925
76.85628 15.04237 341.0849 357.9053
76.88479 15.0077 340.9737 357.8723
76.9135 14.93192 340.8697 357.8713
76.94683 14.85578 340.7638 357.8711
76.97958 14.79104 340.5817 357.8665
77.0079 14.76892 340.3573 357.7529
77.03484 14.71533 340.1231 357.6227
77.06257 14.70773 339.9764 357.537
77.0959 14.69308 339.817 357.4934
77.12569 14.71712 339.7475 357.4592
77.15637 14.77467 339.7474 357.4153
77.18408 14.79548 339.7582 357.3977
77.21111 14.75521 339.7736 357.3582
77.24444 14.79659 339.8179 357.3948
77.27237 14.82759 339.8662 357.4323
77.3033 14.85282 339.9328 357.4608
77.33469 14.82224 339.9421 357.4093
77.36169 14.84542 339.9189 357.4001
77.39502 14.87094 339.9439 357.4096
77.42424 14.92693 339.9289 357.4636
77.4521 14.9084 339.9263 357.4546
77.48251 14.94302 339.994 357.4929
77.51239 14.98326 339.9883 357.513
77.54572 14.94753 340.0509 357.5952
77.57756 14.93423 340.0584 357.6489
77.60438 14.87216 340.0305 357.6886
77.63133 14.87952 340.1176 357.5922
77.65729 14.8538 340.1347 357.6923
77.68819 14.83991 340.1475 357.7943
77.72152 14.8318 340.1472 357.7941
77.74813 14.84012 340.1783 357.7505
77.77547 14.8289 340.1901 357.8383
77.80824 14.8265 340.2365 357.8663
77.83395 14.82555 340.3239 357.9403
77.86669 14.78836 340.3665 358.0096
77.90002 14.68913 340.3747 357.9421
77.93025 14.69076 340.3905 357.9318
77.96033 14.73325 340.3653 357.9299
77.98967 14.67565 340.3595 357.941
78.01794 14.67705 340.4142 357.9216
78.05128 14.69419 340.4279 357.9036
78.08461 14.69194 340.4714 358.0133
78.1123 14.66435 340.5674 358.0621
78.14361 14.65731 340.6123 358.121
78.17234 14.61909 340.682 358.1335
78.20567 14.57161 340.7596 358.1168
78.23408 14.5445 340.7715 358.1461
78.2615 14.52326 340.8465 358.1557
78.28947 14.58428 340.9286 358.1446
78.32281 14.59044 341.002 358.1725
78.35614 14.56737 341.0628 358.162
78.38608 14.54368 341.1557 358.1312
78.41312 14.57798 341.3317 358.1222
78.44242 14.477 341.3977 358.1535
78.47087 14.47058 341.6008 358.1675
78.5042 14.53065 341.8149 358.1464
78.53477 14.54521 342.0559 358.4046
78.56333 14.6069 342.3326 358.5902
78.59666 14.68406 342.4622 358.6153
78.62663 14.74936 342.6323 358.5353
78.65997 14.6418 342.7377 358.4499
78.68764 14.64925 342.844 358.4481
78.71751 14.73003 343.0128 358.4158
78.74568 14.65995 343.3072 358.2552
78.77281 14.59949 343.493 358.2315
78.80072 14.65846 343.6815 358.2365
78.83405 14.68977 343.8308 358.2639
78.86681 14.6075 343.9628 358.2822
78.89432 14.44139 344.0703 358.1342
78.92097 14.51905 344.2715 357.9246
78.95185 14.62484 344.4374 357.8871
78.98518 14.66109 344.6267 357.8148
79.01282 14.7015 344.8849 357.8662
79.04285 14.78942 345.1701 357.9099
79.07327 14.68774 345.4619 357.9385
79.10153 14.65373 345.7089 357.9367
79.13486 14.63731 346.0158 357.9437
79.16231 14.63093 346.1953 357.9501
79.19386 14.63676 346.4622 357.8851
79.22209 14.70416 346.5693 357.8676
79.25542 14.63365 346.6885 357.8105
79.28876 14.61332 346.7672 357.7889
79.31934 14.58403 346.8406 357.7685
79.3475 14.5691 346.9549 357.7257
79.37469 14.65631 347.0867 357.5898
79.40402 14.70783 347.1664 357.5989
79.43736 14.69027 347.2819 357.5769
79.46757 14.70078 347.3639 357.532
79.49806 14.71224 347.5663 357.5588
79.52549 14.68977 347.7815 357.5951
79.55377 14.76552 347.9919 357.6346
79.5871 14.73119 348.1277 357.6302
79.61874 14.6806 348.3814 357.6711
79.64588 14.60812 348.8281 357.7597
79.67538 14.71345 349.0547 357.8391
79.70356 14.76209 349.4841 357.8713
79.73689 14.57261 349.772 357.878
79.76517 14.47929 350.1084 358.0197
79.79261 14.6992 350.8782 358.1005
79.82027 14.52711 351.3806 358.0538
79.84939 14.20918 351.8792 358.1177
79.88272 14.23068 352.2337 358.1855
79.90968 14.43188 352.6409 358.2456
79.93717 14.58477 353.1284 358.3373
79.97018 14.46303 353.3716 358.3878
80.00256 14.40283 353.6221 358.3949
80.0359 14.39909 353.8854 358.2217
80.06486 14.33297 354.0897 358.1558
80.09224 14.3989 354.3914 358.1291
80.11983 14.16449 354.7693 358.2312
80.14758 14.0423 354.9997 358.3779
80.17569 14.10497 355.3084 358.417
80.20902 13.97729 355.5588 358.403
80.24158 13.76473 356.0547 358.3661
80.26872 13.60829 356.7326 358.2821
80.30022 13.43912 357.0742 358.2959
80.32787 13.25786 357.5138 358.5284
80.36121 13.23885 357.7696 358.5552
80.38806 13.19693 358.0313 358.2663
80.41552 12.7586 358.2594 358.2302
80.4435 12.61654 358.4799 358.0486
80.47239 12.59617 358.6574 357.7341
80.50504 12.4116 358.7809 357.331
80.53838 11.88559 358.7744 357.1861
80.57172 11.96955 358.8017 357.1391
80.6001 12.27529 358.9474 356.4827
80.63154 12.21046 359.0758 356.2617
80.66145 12.0439 359.0654 356.2617
80.69478 12.04144 359.1123 356.249
80.72199 11.88676 359.284 356.2121
80.75445 11.69847 359.4557 356.4189
80.78679 11.84174 359.7267 356.2859
80.81422 11.9231 359.8533 356.3145
80.84755 11.78915 0.06517681 356.4315
80.88088 11.77401 0.330821 356.4915
80.9072 12.00124 0.6253024 356.72
80.93533 12.01328 0.7901592 356.7657
80.96524 12.03576 1.036821 356.8848
80.99857 11.96427 1.247948 357.0774
81.02606 12.06584 1.290033 357.185
81.05405 12.01287 1.39461 357.4169
81.08023 11.77691 1.585677 357.4499
81.10818 11.88943 1.636852 357.4618
81.14099 11.7909 1.716609 357.6483
81.17432 11.58562 1.785191 357.6664
81.20271 11.84741 1.795892 357.7305
81.23604 12.26265 1.835292 357.849
81.26302 11.92159 1.966963 358.0612
81.29308 11.8422 2.101269 358.1394
81.32641 11.83774 2.231169 358.3504
81.35635 11.65842 2.425057 358.3333
81.3843 11.71808 2.599123 358.3999
81.41285 11.6794 2.614509 358.3903
81.44019 11.40223 2.443926 358.4559
81.46744 11.28017 2.288909 358.4623
81.50077 11.18409 2.018233 358.4203
81.5335 11.08963 1.854311 358.3665
81.56241 11.04752 1.740583 358.1615
81.59053 11.36137 1.609842 358.3869
81.61842 11.44926 1.582584 358.4152
81.65175 11.3112 1.572854 358.4607
81.68119 11.28165 1.514293 358.6925
81.7088 11.48811 1.473055 358.9125
81.73734 11.50522 1.346122 358.95
81.77067 11.23245 1.148396 358.9828
81.804 11.24053 1.008666 358.9005
81.83471 11.52982 1.075565 358.7062
81.86288 11.94883 1.147193 358.6294
81.88867 12.0151 1.296143 358.5182
81.92104 12.37024 1.51371 358.307
81.95437 12.37604 1.750274 358.4153
81.98614 12.21965 1.950884 358.4582
82.01649 12.06401 2.292661 358.6653
82.044 11.98853 2.456473 358.8296
82.07171 12.10017 2.57464 358.9276
82.10504 12.02772 2.645803 359.0755
82.13323 11.71004 2.871481 359.0492
82.16582 11.87367 3.079464 358.9908
82.19366 12.29583 3.188959 359.0555
82.22396 12.16009 3.343218 359.1339
82.25729 12.08732 3.406289 359.2711
82.28572 12.12167 3.537171 359.3417
82.31756 12.06479 3.702967 359.3522
82.34654 11.99483 3.817611 359.4117
82.37424 12.18465 3.824821 359.6685
82.40758 12.00144 3.937433 359.6858
82.43537 11.99859 4.141745 359.6692
82.46307 12.14497 4.289265 359.7803
82.49549 12.19842 4.390318 359.8572
82.52168 12.1669 4.502873 359.8861
82.54948 12.14892 4.668829 359.7911
82.58281 12.26053 4.619067 359.9112
82.61013 12.17821 4.708233 359.8929
82.63848 12.27341 4.804886 359.8377
82.66611 12.34165 4.827902 359.9559
82.69435 12.29823 4.867178 359.903
82.72768 12.46802 4.769936 0.09029822
82.75845 12.44596 4.774308 0.1394423
82.79027 12.48822 4.769801 0.005987558
82.81967 12.66584 4.611329 0.2357616
82.84839 12.59009 4.618069 0.1468283
82.88172 12.58848 4.62394 0.03630959
82.91485 12.67774 4.594154 0.09507272
82.94279 12.60282 4.523389 0.06717199
82.96968 12.46928 4.310048 0.02077427
83.00072 12.43853 4.13752 359.9538
83.03406 12.54284 3.87843 359.8426
83.06165 12.54195 3.695123 359.927
83.09332 12.43131 3.374677 359.8606
83.12434 12.45892 3.171039 359.7717
83.15768 12.53579 3.050312 359.7651
83.19101 12.48898 2.927597 359.7508
83.22161 12.48979 2.904928 359.7293
83.24966 12.42527 2.848741 359.6945
83.28013 12.45768 2.773627 359.6868
83.31101 12.53031 2.742718 359.7437
83.34435 12.48076 2.716207 359.756
83.37407 12.52323 2.676921 359.8229
83.40544 12.52504 2.608314 359.8688
83.43304 12.5082 2.638021 359.8218
83.46638 12.50756 2.654534 359.8471
83.49971 12.52716 2.656479 359.8438
83.52718 12.47108 2.620216 359.8672
83.56052 12.4697 2.646487 359.8195
83.59385 12.47108 2.62741 359.8482
83.62203 12.51923 2.710475 359.8939
83.65536 12.58135 2.691223 359.8654
83.68514 12.6647 2.689304 359.912
83.71369 12.64623 2.750687 359.8904
83.7458 12.60066 2.794455 359.9448
83.77426 12.63973 2.815592 0.006002298
83.80759 12.63135 2.795267 -0.0007127014
83.83828 12.70593 2.767656 359.9137
83.86806 12.7275 2.652712 0.01667264
83.89443 12.72297 2.47276 359.9748
83.92351 12.81765 2.384835 359.96
83.95113 12.89251 2.18561 359.9351
83.97755 12.8546 2.064628 359.9192
84.00635 12.84951 1.854485 359.9413
84.03292 12.83388 1.722117 359.9379
84.06055 12.95479 1.617724 0.01221238
84.08886 12.93054 1.479439 0.03786522
84.12022 12.95472 1.363819 0.05385038
84.1497 13.0305 1.238248 0.03553721
84.17748 13.18745 0.9967083 0.08584264
84.20453 13.23721 0.7678562 0.09572269
84.23786 13.3153 0.5939609 0.06699359
84.27119 13.63636 0.1551259 -0.003727943
84.30453 14.06326 359.5077 359.8714
84.33573 15.64779 357.57 359.2797
84.36681 17.00139 356.3817 358.6776
84.39617 17.67815 355.7866 358.3075
84.42876 18.28987 354.8622 357.8718
84.4621 18.88151 354.2787 357.6417
84.49131 19.19099 354.0938 357.55
84.51832 19.00465 354.3892 357.6584
84.54596 18.55152 355.1429 357.9971
84.5748 18.02174 356.5642 358.4444
84.60813 17.65434 358.0901 358.8073
84.63786 17.10229 0.4716658 359.3835
84.66711 16.46477 3.813437 0.5553024
84.69538 15.97351 5.678997 1.003652
84.72396 15.58539 6.820636 1.180637
84.75729 15.28831 7.682973 1.443929
84.784 14.95852 8.071594 1.422454
84.81187 14.79377 8.263342 1.117643
84.8396 14.6867 8.285892 1.029678
84.86658 14.50419 8.318114 0.9247686
84.89992 14.40165 8.424824 0.616362
84.92751 14.49984 8.576053 0.4648147
84.95756 14.72336 8.799045 0.2996253
84.98604 14.91204 8.940218 0.3655512
85.01937 14.95418 9.023275 0.2873877
85.0527 14.95963 9.173927 0.1730441
85.08098 14.86243 9.274547 0.3640567
85.11431 14.77642 9.365831 0.527807
85.142 14.83336 9.395761 0.5393209
85.17534 14.95411 9.389862 0.8127966
85.20867 15.11289 9.334043 1.010892
85.23562 15.04733 9.208983 0.9684225
85.26412 15.06481 8.841122 1.139722
85.29317 15.16805 8.822143 1.067137
85.32133 15.13762 8.845124 1.05265
85.35467 15.06935 8.918059 1.155928
85.38272 15.05314 9.27829 1.11573
85.40878 15.09662 9.995887 1.107921
85.43764 14.99886 10.28686 1.365551
85.46584 14.91354 10.66661 1.43806
85.49917 14.95429 10.78057 1.363042
85.52654 15.00843 10.86235 1.391542
85.55373 15.02368 10.94396 1.31474
85.58226 15.02574 11.0863 1.191102
85.60988 15.06134 11.2032 1.037686
85.64321 14.97825 11.56395 0.8535949
85.67062 14.99469 11.81703 0.9108599
85.69747 14.72662 11.98975 1.083013
85.72945 14.3919 12.2367 0.8427972
85.75848 14.07922 12.56838 0.7958262
85.79181 14.02209 12.90625 0.7571065
85.82514 13.90367 13.10131 0.777398
85.85334 13.6527 13.57079 0.6356851
85.8823 13.8722 13.86134 0.6050143
85.91018 13.6757 13.87772 0.7469145
85.94351 13.59078 13.91848 0.6415748
85.97083 13.62288 14.01151 0.5281678
85.99882 13.84228 14.32258 0.2282731
86.02517 13.8615 14.38554 0.06254251
86.05703 13.71043 14.37617 0.04019841
86.09036 13.62611 14.30322 0.1676119
86.11833 13.55921 14.32481 0.1415982
86.14942 13.35109 14.38785 359.9212
86.17787 13.05452 14.48017 0.02642387
86.20808 12.84557 14.64615 0.2613032
86.24141 12.74157 14.74903 0.2472783
86.27417 12.75443 14.91216 0.1654186
86.3075 12.79471 15.1747 0.3783185
86.33661 12.59208 15.23137 0.7165238
86.36482 12.245 15.47219 0.4766995
86.39816 12.08311 15.69808 0.4527882
86.42614 11.78029 16.07463 0.7005789
86.45389 11.2362 16.9263 0.8067514
86.48292 10.51835 18.05553 0.8021304
86.51099 9.654339 19.40362 0.7068347
86.54433 8.727832 21.33622 1.2783
86.57211 8.023685 23.4958 2.021577
86.60033 7.527296 25.15858 2.539049
86.63367 7.238126 26.1779 2.815768
86.667 7.154263 26.57982 2.922492
86.70033 7.13885 26.80821 3.358237
86.73367 7.302122 26.37988 3.343738
86.767 7.430922 26.0021 3.192021
86.79569 7.620237 25.64034 3.369625
86.82903 8.081358 25.14543 3.176286
86.85632 8.32655 24.82196 3.187743
86.88463 8.314256 24.08219 3.669454
86.91796 8.592767 23.74374 3.281619
86.9458 8.936274 23.0947 2.995879
86.97913 9.029483 22.5093 2.70694
87.01247 9.307682 22.42787 2.256337
87.0458 9.65645 22.02356 2.057719
87.07913 9.430118 22.2088 1.321594
87.11247 10.59848 21.57512 1.452028
87.14581 9.466458 21.36574 0.7050864
87.174 10.7361 21.21422 0.2583614
87.20354 10.06788 20.59117 0.1592523
87.23688 9.651697 20.77347 359.4628
87.26432 10.48085 20.47605 359.5867
87.2922 10.62795 20.45781 359.6306
87.31883 10.84784 20.4689 359.4578
87.34777 10.89964 20.33912 359.3168
87.37609 10.51321 20.1997 358.8647
87.40942 10.50228 20.15965 358.6285
87.44276 10.62153 20.12622 358.1559
87.47409 10.73141 20.23788 357.7813
87.50294 11.10392 20.43392 357.6811
87.53627 11.33553 20.81581 357.4952
87.5696 11.63316 20.98288 357.5093
87.60294 11.89187 20.9933 357.9185
87.63627 11.65653 20.75569 357.9657
87.66537 11.37819 20.37905 357.765
87.69871 11.95123 20.24205 357.4669
87.73204 12.11356 20.28521 357.1282
87.76023 12.11456 20.50775 356.967
87.78719 12.2486 20.6271 356.8648
87.81719 12.33539 20.60337 356.8948
87.85052 12.3471 20.44865 356.9196
87.88136 12.38064 20.23416 356.9285
87.90908 12.38918 19.90986 356.7794
87.9419 12.49685 19.82324 356.6411
87.97082 12.53607 19.88588 356.6052
88.00415 12.45008 20.16013 356.5393
88.03607 12.25381 20.40143 356.5124
88.06297 12.07275 20.69134 356.8654
88.08997 11.9846 20.85206 356.9143
88.11945 11.96558 21.10983 356.863
88.15278 11.98837 21.1084 356.9551
88.18035 11.89856 21.07602 357.0457
88.20822 11.92812 21.08921 357.0757
88.23666 11.83877 21.03892 357.1546
88.27 11.69475 21.01157 357.1337
88.30333 11.671 20.93528 357.1205
88.33002 11.54209 21.00795 357.1149
88.36243 11.59577 21.09081 357.3903
88.38938 11.62444 21.14718 357.5793
88.41659 11.54158 21.14184 357.583
88.44992 11.49558 21.12369 357.5017
88.4789 11.3441 21.02842 357.4896
88.51181 11.11058 20.99793 357.4991
88.54041 11.17058 21.01298 357.5498
88.57053 11.30178 20.98699 357.8235
88.60387 11.17529 20.96063 357.8748
88.6372 11.10464 21.03198 357.9227
88.66655 11.20328 21.19646 358.045
88.69418 11.17646 20.99573 358.2931
88.72441 10.9825 20.90117 358.3691
88.75774 10.9911 20.98608 358.3482
88.79108 11.29386 20.87803 358.696
88.82441 11.05849 20.86244 358.6277
88.85209 11.05574 20.8202 358.5179
88.88542 11.1892 20.51377 358.797
88.91875 10.88469 20.5759 358.6124
88.94788 10.95463 20.49197 358.8729
88.98122 10.72417 20.41613 358.9573
89.01455 10.79162 20.41359 358.94
89.04342 10.84552 20.41719 359.0498
89.07111 10.67727 20.40526 359.1536
89.09982 10.62773 20.35332 359.2697
89.12982 10.32593 20.41693 359.2638
89.16315 10.34985 20.37171 359.3496
89.19649 10.39085 20.294 359.5003
89.22385 9.935308 20.30031 359.3542
89.25121 9.780385 20.46709 359.3175
89.28453 10.0013 20.56736 359.3926
89.31786 9.945702 20.64517 359.464
89.34583 9.641832 20.6698 359.3868
89.37669 9.740081 20.57115 359.5293
89.40526 9.78648 20.49136 359.4958
89.43645 9.725141 20.4004 359.4478
89.46978 9.838008 20.30389 359.5493
89.50311 9.859555 20.26066 359.5867
89.52962 9.923596 20.14632 359.7168
89.55814 9.946898 19.98622 359.8526
89.58712 9.924375 19.83435 359.9303
89.62045 9.887873 19.72194 359.9879
89.65379 9.747825 19.47935 0.1028284
89.68257 9.673103 19.24433 0.2438891
89.7159 9.610672 19.03768 0.3679211
89.74924 9.549507 19.01578 0.3469649
89.77998 9.430143 18.98389 0.3436133
89.80629 9.358545 19.06988 0.3060573
89.83963 9.338495 19.11816 0.3437772
89.86917 9.166947 19.03277 0.7425798
89.9025 9.135229 19.00644 0.7389042
89.93584 9.079124 18.95585 0.7373875
89.96917 8.954197 18.84102 0.7600198
89.99649 8.663465 18.63987 0.9100444
90.02982 8.620934 18.48563 1.105846
90.06316 8.679729 18.43832 1.069207
90.09141 8.602997 18.33238 1.176207
90.1215 8.690757 18.15773 1.324151
90.15033 8.702534 18.08949 1.294585
90.17827 8.577332 17.96728 1.249051
90.2116 8.48446 17.86389 1.359695
90.24493 8.381102 17.77 1.469102
90.27827 8.193267 17.5892 1.428467
90.30781 8.059436 17.22121 1.422092
90.34114 7.824415 16.88516 1.367265
90.37447 7.64119 16.80154 1.189476
90.40592 7.563377 16.80899 1.159801
90.43925 7.430433 17.0601 1.185964
90.47259 7.484089 17.32861 1.123894
90.50211 7.49357 17.5739 0.9146528
90.53252 7.408173 17.69116 0.8108289
90.56264 7.338803 17.63358 0.8055928
90.59598 7.233907 17.55119 0.6121643
90.62931 7.322812 17.4891 0.5050347
90.65785 7.262999 17.42772 0.5639459
90.68615 7.006562 17.34224 0.579151
90.7184 7.001132 17.22197 0.6354626
90.74605 6.924104 17.1788 0.590699
90.77938 6.734411 17.11987 0.6477206
90.80729 6.656258 16.98098 0.6770746
90.83572 6.410515 16.61624 0.4505179
90.86906 6.324057 16.59741 0.3258144
90.89757 6.011396 16.65293 0.1855986
90.9309 6.020879 16.71064 0.1866131
90.96423 5.857126 16.75754 0.1217255
90.99757 6.019815 16.78263 0.1026812
91.0309 6.193937 16.63659 0.1506266
91.06423 6.370587 16.4558 0.2396366
91.09538 6.381337 16.33708 0.1507882
91.12349 6.453046 16.32317 0.2313745
91.15243 6.347585 16.35795 0.2898059
91.18267 6.339262 16.56347 0.4045125
91.216 6.236779 16.74491 0.4407234
91.24352 6.705293 16.8776 0.3657421
91.27251 6.784058 16.82876 0.5381112
91.30091 6.831905 16.69028 0.379317
91.32967 6.749463 16.60392 0.378167
91.36301 6.79437 16.40821 0.3526042
91.39007 6.875462 16.34601 0.3685976
91.42216 6.750375 16.29383 0.3880223
91.45023 6.568465 16.24542 0.4213428
91.47834 6.548436 16.24227 0.48949
91.51167 6.369059 16.26383 0.6790234
91.54187 6.265607 16.22121 0.6670094
91.57121 6.30871 16.27641 0.5572777
91.60004 6.349324 16.32184 0.4121169
91.6282 6.271996 16.34289 0.2941552
91.66153 6.145786 16.29385 0.3824624
91.69378 6.071319 16.13266 0.4694688
91.72331 5.891993 16.02764 0.4929858
91.75135 5.628819 16.10015 0.4594317
91.78468 5.370098 16.28549 0.6365233
91.81802 4.86008 16.6792 0.3380561
91.85135 3.931697 16.98777 0.1309686
91.87974 3.686867 16.93681 0.3132172
91.90913 3.338867 16.80251 0.2129124
91.94174 3.166655 16.6184 0.3021139
91.97507 2.755798 16.61858 0.1870824
92.00335 2.364712 16.61674 359.9623
92.03114 2.218696 16.17643 0.1503538
92.06023 1.672414 16.082 0.1132834
92.09356 1.387349 16.10955 359.9182
92.12689 1.56884 15.89905 359.8685
92.15586 1.507028 15.6292 359.8605
92.18422 0.8974836 15.46049 359.6953
92.21176 0.6158445 15.24434 359.7
92.24509 0.3958837 15.12553 359.653
92.27843 0.2963104 15.1087 359.5545
92.30514 359.793 14.83422 359.542
92.33781 0.00854538 14.56952 359.3267
92.36632 0.09227972 14.54851 359.191
92.3944 0.3220797 14.46605 359.1272
92.42773 0.6672254 14.24231 359.1671
92.45638 0.8784504 13.87533 359.1183
92.48652 1.344969 13.54247 359.0837
92.51718 1.505575 13.13628 359.1586
92.55052 1.45996 12.78099 359.286
92.58385 1.66387 12.59366 359.1663
92.61456 1.84977 12.41846 359.0955
92.64541 1.779417 12.07626 359.1133
92.6757 2.355451 11.90015 358.8714
92.7068 2.528798 11.70958 358.7983
92.74014 2.809229 11.42987 358.7311
92.76968 3.224513 11.09059 358.8614
92.80301 3.78306 10.48502 358.8316
92.83572 4.077275 9.970173 358.8871
92.86905 4.33084 9.623089 358.8839
92.90238 4.396527 9.389297 358.8427
92.93137 4.546028 9.049252 358.9758
92.96074 4.615912 8.805193 358.7884
92.99058 4.825666 8.591641 358.6711
93.02061 5.095992 8.229646 358.858
93.05394 5.094096 7.940413 358.9274
93.08727 5.119922 7.503709 358.7428
93.11746 5.456773 6.473383 358.4437
93.14588 5.661754 5.788516 358.2914
93.17641 5.591727 5.310208 358.2574
93.20974 5.22555 4.718956 358.3142
93.23781 4.989551 4.379438 358.1702
93.27114 5.034908 4.261293 357.9697
93.30247 4.331863 4.603628 357.4327
93.32939 3.822134 5.040392 357.046
93.36272 3.530074 5.296644 356.9445
93.39038 3.089768 5.631574 357.0698
93.41808 2.928977 5.753095 357.4966
93.44813 2.699453 5.746453 357.7078
93.47737 2.398452 5.745344 357.7439
93.5107 2.116024 5.804846 357.6555
93.54059 1.881981 5.801123 357.505
93.5718 1.690294 5.70843 357.6164
93.60514 1.427506 5.564277 357.5962
93.63583 1.122224 5.473668 357.498
93.66916 0.7947316 5.41221 357.5384
93.69819 0.4217211 5.386616 357.7549
93.73152 0.006102847 5.48381 357.8278
93.76153 359.9192 5.635408 357.9
93.79156 0.03181392 5.687932 357.9067
93.82489 0.2617649 5.718031 357.7668
93.85822 0.3065027 5.700452 357.5718
93.88662 0.2242621 5.68786 357.8241
93.91839 0.2834257 5.654598 357.856
93.94919 0.313266 5.624118 357.7888
93.98252 0.3697562 5.581926 357.7432
94.0116 0.4396987 5.526834 357.6951
94.03933 0.3295433 5.238743 357.8019
94.06715 0.1004519 5.017234 357.9826
94.0964 359.6383 4.69174 358.097
94.12973 359.295 4.56899 358.0884
94.15764 358.9873 4.496808 358.1666
94.18785 358.7153 4.485713 357.9406
94.21606 358.7074 4.457249 357.8925
94.24427 358.8164 4.242522 358.0835
94.2776 358.938 4.140797 358.2708
94.30515 359.0661 4.043622 358.5657
94.33222 359.5397 3.973465 358.8927
94.35972 359.9214 3.974639 358.9453
94.39305 0.2292207 4.024882 358.9834
94.42638 0.8107058 4.072506 359.02
94.45799 1.343939 3.988423 359.1252
94.48617 2.629392 3.913515 359.3283
94.51297 3.341096 3.893985 359.2755
94.54129 3.928592 3.84967 359.2143
94.57462 4.207986 3.683674 359.175
94.60185 4.500958 3.365112 358.9388
94.62939 5.094973 2.768966 358.7136
94.66191 5.534807 2.459951 358.7171
94.68908 6.61359 1.994249 358.7405
94.72241 7.540985 1.715534 358.7775
94.75066 8.927222 1.411317 358.844
94.77954 11.13988 1.239655 359.0043
94.8093 12.0644 1.341661 359.041
94.83945 13.4671 1.620096 359.1089
94.87278 15.09148 2.123775 359.1989
94.90162 16.06365 2.706114 359.3656
94.92974 18.15246 4.39211 0.2024179
94.95692 19.25896 5.233558 0.6032088
94.99 20.1665 6.689247 1.261731
95.02333 21.11101 8.132051 2.126556
95.05062 21.89962 8.938822 2.647808
95.07872 22.82593 9.991778 3.093584
95.10751 23.89623 10.42735 3.484018
95.13621 24.46415 10.54735 3.789376
95.16954 25.09835 10.44521 3.793513
95.20006 25.71702 10.43209 3.696048
95.23222 25.39954 10.45127 3.650153
95.26036 24.82847 10.30831 3.682182
95.28977 23.86346 10.06712 3.766268
95.3231 23.5638 9.947732 3.761605
95.35644 23.73227 9.784619 3.616593
95.38702 24.85341 9.66782 3.65402
95.41849 25.5688 9.644513 3.682139
95.44964 26.12011 9.693044 3.803007
95.48297 26.3519 9.662803 3.905834
95.51335 26.48344 9.535702 3.913521
95.5445 26.93065 9.044728 3.842124
95.57256 27.07883 8.487588 3.655625
95.60089 27.26387 7.945131 3.536267
95.63422 27.76885 6.798688 3.236869
95.66473 28.15515 5.746769 2.915692
95.69475 28.75998 3.35463 2.150535
95.72808 29.4586 1.120562 1.437614
95.75685 30.08769 358.3818 0.304462
95.79018 30.58723 356.247 359.2941
95.82225 31.17008 353.6847 357.8602
95.85374 31.95135 350.4084 356.313
95.88152 32.03154 348.8391 355.6933
95.91071 32.04142 348.1822 355.5146
95.94405 32.0469 347.4784 355.5544
95.97171 32.39738 347.0413 355.5928
95.99947 32.67739 346.8382 355.771
96.0308 32.74732 346.7388 356.1012
96.06106 32.89685 346.778 356.328
96.09439 32.9688 346.8581 356.5161
96.12306 32.99257 347.0283 356.7475
96.14978 32.96053 347.3109 357.0372
96.17728 32.99356 347.3831 357.0706
96.20672 32.92888 347.5454 357.1356
96.24005 32.93573 347.6057 357.1665
96.26776 32.86929 347.7693 357.2697
96.296 32.7996 347.9004 357.3216
96.32421 32.69386 348.0326 357.4515
96.35272 32.61389 347.9997 357.4397
96.38605 32.51328 347.9127 357.4885
96.41388 32.4367 347.7473 357.4436
96.44329 32.28423 347.4281 357.3427
96.47662 32.28922 347.1358 357.2075
96.50408 32.20507 346.7375 357.1484
96.53741 32.11781 346.4774 357.057
96.56791 31.98647 346.0664 357.0135
96.59436 31.82004 345.6574 356.8204
96.62341 31.69577 345.5082 356.8628
96.65242 31.64127 345.3538 356.921
96.68575 31.52101 345.265 357.0058
96.71423 31.43277 345.1923 357.0494
96.74278 31.30371 345.1901 357.1378
96.77522 31.27436 345.2667 357.2282
96.80392 31.1286 345.3983 357.4352
96.83725 30.95594 345.5663 357.4701
96.86433 30.81327 345.6927 357.5461
96.8926 30.53385 345.8902 357.6464
96.92589 30.35337 346.0351 357.7169
96.95281 30.15866 346.1924 357.7828
96.98615 30.05023 346.3375 357.8218
97.01948 29.77863 346.6593 357.9718
97.05046 29.39561 347.1357 358.1851
97.07791 29.14731 347.583 358.3791
97.1069 28.84695 347.8829 358.5
97.14024 28.39044 348.6064 358.8138
97.16808 28.00298 349.2821 359.1454
97.19635 26.69373 351.2297 359.8223
97.22377 25.90225 352.31 0.3005759
97.25307 24.579 353.872 0.9388275
97.28642 23.7291 354.9568 1.376801
97.31816 22.70782 356.5667 1.994717
97.34602 21.52828 358.0608 2.551846
97.37632 20.66962 358.9844 2.676935
97.406 19.83445 359.6769 2.680191
97.43933 19.25944 0.04296295 2.549557
97.46852 18.2477 0.5539355 2.479936
97.49564 17.31107 0.9065024 2.27702
97.52398 16.23411 1.269895 2.072993
97.55266 15.56751 1.4708 2.058542
97.58599 14.34107 1.71534 1.959172
97.61654 13.14772 2.033585 1.981614
97.64987 12.01284 2.183549 1.954515
97.67806 10.72613 2.332768 1.736917
97.7082 9.839371 2.444442 1.657072
97.74153 9.096918 2.522572 1.565238
97.77418 8.412674 2.656416 1.443714
97.80289 7.255757 2.790953 1.372378
97.83393 6.511224 2.824644 1.287864
97.86127 5.825405 2.958452 1.214195
97.8946 5.359437 3.049442 1.207252
97.92289 4.588717 3.132883 1.209065
97.94899 3.84934 3.263135 1.157735
97.97596 2.970838 3.381444 1.218016
98.00837 2.547609 3.453584 1.167771
98.0417 1.836121 3.644241 1.148559
98.06914 1.471348 3.828518 1.065936
98.09666 1.169437 4.362851 0.9564419
98.12343 0.8102283 4.863754 1.002634
98.15218 359.7842 5.744086 1.143673
98.18163 359.0187 6.661772 1.187329
98.21496 358.5014 8.122994 1.381011
98.24496 358.1491 9.816465 1.623156
98.27829 357.6727 12.09457 1.500194
98.30743 357.1374 14.26603 1.684057
98.33574 356.8313 15.96024 1.78361
98.36907 356.4045 17.77743 1.863408
98.39635 356.1327 18.79667 1.902951
98.42791 356.0367 20.50516 2.032455
98.45903 356.1927 21.24878 2.223281
98.48629 356.0048 22.16188 2.351277
98.51962 355.6893 23.33906 2.320437
98.54651 355.4913 23.95524 2.417417
98.57288 355.0791 25.35205 2.391062
98.60105 354.9475 25.91738 2.436605
98.63438 354.7864 26.54684 2.405796
98.66772 354.5602 27.19162 2.392178
98.69893 354.5166 27.65847 2.379272
98.72677 354.2723 28.64785 2.302009
98.75336 354.092 29.58776 2.311086
98.78217 353.9801 30.50653 2.293073
98.8155 353.8471 32.05953 2.379465
98.84443 353.756 33.19678 2.506635
98.87263 353.6856 35.30079 2.675556
98.9003 353.7292 37.25663 2.683478
98.92905 353.8379 38.41418 2.813407
98.96238 353.9827 39.64149 2.777165
98.99126 354.1216 40.22335 2.639985
99.02459 354.4009 41.22855 2.183807
99.05218 354.7441 41.76896 2.047444
99.08299 355.0519 41.87668 2.049804
99.11633 355.4992 41.91902 2.123842
99.1442 355.6782 41.81607 2.132631
99.17513 355.9593 41.30272 2.212917
99.20195 356.3384 40.82187 2.297813
99.23131 356.6824 40.66923 2.286988
99.26464 356.9942 40.50771 2.443724
99.29181 357.4323 40.30884 2.774526
99.31969 357.6814 39.73154 3.092291
99.35258 358.0095 38.52493 3.400669
99.37976 358.7497 36.35503 4.089644
99.41309 359.7553 34.15021 4.28884
99.44025 1.909737 29.98834 4.053014
99.46788 3.355386 26.35355 3.393707
99.49547 4.605193 23.30891 2.785504
99.52385 5.687567 21.2347 2.048142
99.55718 6.565605 19.43217 1.605958
99.58456 7.634461 17.53256 1.285847
99.61584 9.033972 15.61395 0.6429039
99.64342 9.81995 14.93773 0.578327
99.67161 10.19034 14.58779 0.619711
99.70495 10.1615 14.63997 0.7188057
99.73487 10.32191 14.67684 1.360738
99.7682 10.98512 14.49384 1.828672
99.79563 11.18543 14.42875 2.143618
99.8251 11.28884 14.01925 2.579146
99.85844 11.74802 13.56211 2.659685
99.88708 12.17536 12.93159 2.639885
99.91372 12.3569 11.74836 2.702626
99.94202 12.42252 11.28661 2.637648
99.97117 12.53041 10.6488 2.594567
100.0045 12.50329 10.22537 2.565318
100.0339 12.60193 9.788229 2.398076
100.0611 12.64823 9.714345 2.216709
100.0878 12.47375 9.740904 2.309055
100.1211 11.98211 9.942476 2.715206
100.1545 11.33029 10.40697 3.202419
100.1851 10.79099 11.23067 3.593076
100.2139 10.44013 12.25965 3.985996
100.2418 10.49419 12.92064 4.290743
100.2706 10.52225 13.16491 4.541416
100.3039 10.59981 13.23085 4.66655
100.3315 10.56631 13.1295 4.723842
100.3592 10.69359 12.87102 4.866223
100.3879 10.99148 12.50902 4.718936
100.4203 11.26036 12.30583 4.611407
100.4536 11.2611 12.00199 4.280964
100.4868 10.85186 11.69918 4.069296
100.5145 9.993675 10.80022 3.182313
100.5419 9.625023 10.3199 2.912786
100.5722 8.817823 9.905303 2.243369
100.6056 8.306242 9.414343 1.314801
100.6334 8.31641 8.830648 0.9928583
100.6634 7.054839 8.759511 0.786267
100.6907 6.384144 9.084566 0.7100319
100.7209 6.710474 9.514532 0.6284915
100.7542 6.70059 9.925665 0.7397365
100.7824 5.718678 10.33976 0.6060425
100.8108 5.395597 11.2236 359.8946
100.8387 5.270857 11.73019 0.2041901
100.8691 5.253221 12.54663 0.7905838
100.9024 4.738429 13.40397 1.157361
100.9304 4.707645 13.81962 1.398881
100.9638 6.258759 15.03624 2.183486
100.9901 8.096743 16.32166 2.535336
101.0179 8.137201 16.98742 2.573691
101.0512 7.748161 17.44836 2.707091
101.0791 6.937877 18.4334 2.440994
101.1072 6.320762 19.38749 1.806576
101.135 6.37297 20.13353 1.589309
101.1624 6.348919 20.60376 1.436177
101.1958 5.923409 21.1029 0.7248887
101.223 5.398538 21.5554 0.09580538
101.2497 4.730294 22.2977 359.7303
101.2778 4.224093 22.68267 359.4316
101.3093 3.628024 23.45985 359.3267
101.3426 3.116694 24.10112 359.3245
101.3721 2.616853 24.9804 359.0419
101.4015 2.11376 26.06217 358.7867
101.4309 1.427355 27.18004 358.5222
101.4596 0.88371 28.27609 358.7148
101.493 0.5358594 28.8559 358.9213
101.5198 359.9844 29.5271 359.2238
101.5481 359.9077 30.06914 359.3666
101.5763 359.992 30.47471 359.1425
101.6033 359.9265 30.6233 358.9748
101.6366 359.9916 30.61453 359.1378
101.6699 0.1127384 30.39138 359.1753
101.6984 0.1793199 30.14991 359.1726
101.7256 0.3298982 29.60652 359.2951
101.753 0.4713317 29.19798 359.3827
101.7815 0.7201723 28.46093 359.2404
101.8148 0.8089808 27.98014 359.1215
101.8429 1.092317 27.56676 358.8995
101.872 1.631526 26.92729 358.8419
101.9005 1.87097 26.61515 358.7726
101.9329 1.906339 26.3452 358.6742
101.9662 1.770575 25.78104 358.4675
101.994 1.653289 25.57016 358.3966
102.0255 1.520103 25.24142 358.6321
102.0533 1.652324 25.04143 358.8286
102.0809 1.758432 25.09689 358.9174
102.1143 1.750399 25.14941 359.1119
102.142 1.643983 25.15188 359.069
102.1706 1.620886 25.07771 358.9856
102.1994 1.664723 25.01081 358.6674
102.228 1.498636 24.84349 358.3699
102.2613 1.45079 24.39702 358.0155
102.2905 1.415931 24.10527 357.7516
102.3182 1.089374 23.74909 357.6512
102.3472 0.9017385 23.58997 357.7365
102.3752 0.7823785 23.50879 357.8071
102.4086 0.6956384 23.43258 357.9125
102.4363 0.7420024 23.3764 358.0068
102.4646 0.8851237 23.43174 357.9053
102.4927 0.893157 23.42923 357.9601
102.523 0.9841155 23.45041 357.9877
102.5563 1.033229 23.425 358.0128
102.5823 0.9880615 23.34415 358.0975
102.6097 1.001086 23.42496 357.9118
102.6374 0.9064509 23.45983 357.8612
102.6672 0.7579917 23.49292 357.9078
102.6943 0.6693674 23.50897 357.9813
102.7276 0.6144788 23.52242 358.1246
102.7543 0.6719512 23.46924 358.1581
102.7823 0.6238179 23.43963 358.1404
102.8144 0.5511152 23.46229 358.1269
102.8422 0.479828 23.56995 358.0867
102.8755 0.498559 23.66026 358.1565
102.9074 0.5217996 23.6825 358.2194
102.9353 0.5935251 23.60015 358.2883
102.9629 0.6158263 23.4446 358.3089
102.9915 0.6605727 23.33508 358.2532
103.0248 0.8263838 23.18422 358.093
103.0531 0.9399883 23.01244 358.0862
103.08 1.062837 22.21441 357.7026
103.1064 0.6608722 21.27203 356.7131
103.1343 0.2795296 19.39316 355.0829
103.163 1.001431 16.39352 353.4057
103.1963 1.94562 14.25349 352.5822
103.2244 2.239675 13.13489 352.3574
103.2554 3.192844 11.22836 352.8951
103.2824 3.641906 10.15155 353.5628
103.3132 4.159131 9.169723 353.7857
103.3465 4.647649 7.916468 353.901
103.3734 4.768065 7.25816 353.9937
103.4011 5.453419 5.598766 353.8436
103.4294 5.919548 4.803343 353.6924
103.4594 6.60315 3.721555 353.4462
103.4927 7.026127 2.86129 353.1727
103.5199 7.27894 1.987211 352.6645
103.5457 7.639481 1.429993 352.6376
103.579 0 0 0
