時間[s] タイヤの舵角[deg]
0 0
0.02 1.05
0.05333333 1.05
0.08666666 1.05
0.12 1.05
0.1520465 1.05
0.1853798 1.05
0.2134577 1.05
0.2421689 1.05
0.2718361 1.05
0.301668 1.05
0.330935 1.05
0.3600292 1.05
0.3931659 1.05
0.4234818 0.65
0.4568152 -0.2
0.4899478 -0.2
0.5172578 -0.85
0.5487958 -1.3
0.5821291 -1.3
0.6154624 -1.3
0.642466 -1.3
0.6733327 -1.3
0.7023941 -1.3
0.7305816 -1.3
0.7584647 -1.3
0.7865255 -1.3
0.8139547 -1.3
0.8472881 -1.3
0.8751209 -1.3
0.9044009 -1.3
0.9330543 -1.3
0.9606197 -1.3
0.9903315 -1.3
1.021097 -1.3
1.052682 -1.3
1.080357 -1.3
1.109277 -1.3
1.139411 -1.3
1.169196 -1.5
1.202332 -1.7
1.231496 -1.7
1.260956 -1.95
1.29429 -1.95
1.324445 -1.95
1.35232 -1.95
1.381424 -1.95
1.408633 -1.95
1.44009 -1.95
1.46676 -1.95
1.496139 -1.95
1.525103 -1.95
1.553417 -1.95
1.58675 -1.95
1.615329 -1.95
1.642302 -1.95
1.675635 -1.95
1.704354 -1.95
1.732775 -1.95
1.762757 -1.95
1.795418 -1.95
1.82713 -1.95
1.855424 -1.95
1.885313 -1.95
1.918647 -1.95
1.947485 -1.95
1.977446 -1.95
2.005906 -1.95
2.036399 -1.95
2.064143 -1.95
2.097477 -1.95
2.125331 -1.95
2.153173 -1.95
2.184978 -1.95
2.216516 -1.95
2.245322 -1.95
2.27821 -1.95
2.308044 -1.95
2.336677 -1.95
2.36769 -1.95
2.396998 -1.95
2.424876 -1.95
2.45821 -1.95
2.487164 -1.95
2.517658 -1.95
2.547221 -1.95
2.578592 -1.95
2.608801 -1.95
2.642135 -1.95
2.669692 -1.95
2.697843 -1.95
2.731176 -1.95
2.759802 -1.95
2.793135 -1.95
2.82213 -1.95
2.854187 -1.95
2.88444 -1.95
2.912818 -1.95
2.942373 -1.95
2.972682 -1.95
3.001163 -1.95
3.029921 -1.95
3.059034 -1.95
3.092265 -1.95
3.122694 -1.95
3.150282 -1.95
3.181504 -1.95
3.208935 -1.95
3.237976 -1.95
3.271309 -1.95
3.303758 -1.95
3.332905 -1.95
3.36518 -1.95
3.396235 -1.95
3.429569 -1.95
3.458919 -1.95
3.489249 -1.95
3.522583 -1.95
3.550348 -1.95
3.582033 -1.95
3.615366 -1.95
3.6487 -1.95
3.679943 -1.95
3.711155 -1.95
3.741713 -1.95
3.769821 -1.95
3.801419 -1.95
3.830841 -1.95
3.862166 -1.95
3.892924 -1.95
3.921268 -1.95
3.949531 -1.95
3.982865 -0.85
4.016198 1.3
4.048429 1.3
4.07706 4.55
4.105475 8.7
4.13333 8.7
4.162367 12
4.19218 12
4.221884 14.15
4.255218 16.35
4.286586 16.35
4.31852 17.65
4.350328 17.65
4.381758 19.4
4.415092 20.75
4.448425 20.75
4.478582 22.5
4.5068 24.2
4.537121 24.2
4.566208 25.3
4.598951 25.3
4.628898 26.2
4.662231 26.2
4.689457 26.2
4.719505 25.95
4.752839 25.95
4.781266 25.95
4.812747 26.2
4.84608 26.2
4.878753 26.85
4.90751 27.3
4.936967 27.3
4.967791 27.3
5.000041 27.3
5.033374 27.3
5.064769 27.3
5.093464 27.3
5.120895 27.3
5.149837 27.3
5.182755 27.3
5.210987 27.3
5.24432 27.3
5.273501 27.3
5.302302 27.3
5.331604 27.3
5.361487 27.3
5.394454 27.3
5.426224 27.3
5.456803 27.3
5.490137 27.3
5.520527 27.3
5.550578 27.3
5.583911 27.3
5.614061 27.3
5.645108 27.3
5.672525 27.3
5.705859 27.3
5.737456 27.3
5.765094 27.3
5.798428 27.3
5.829171 27.3
5.857309 27.3
5.890643 27.3
5.919695 27.3
5.952745 27.3
5.983609 27.3
6.016943 27.3
6.045444 27.3
6.078778 27.3
6.10955 27.3
6.142883 27.3
6.172066 27.3
6.205399 27.3
6.238732 27.3
6.266576 27.3
6.294295 27.3
6.325647 27.3
6.352937 27.3
6.383254 27.3
6.416587 27.3
6.447939 27.3
6.476019 27.3
6.505282 27.3
6.538615 27.3
6.568772 27.3
6.600862 27.3
6.634195 27.3
6.665017 27.3
6.694564 27.3
6.722856 27.3
6.756032 27.3
6.787126 27.3
6.818334 27.3
6.848637 27.3
6.880316 27.3
6.913649 27.3
6.943549 27.3
6.972323 27.3
7.00248 27.3
7.032435 28.15
7.065768 28.15
7.09468 29.05
7.124882 30.35
7.156587 30.35
7.187805 31.45
7.221138 32.95
7.249362 32.95
7.279252 34.05
7.310225 34.05
7.340519 35.35
7.373852 35.8
7.406281 35.8
7.43937 36.25
7.472703 36.45
7.503331 36.45
7.532531 36.9
7.564891 37.1
7.598224 37.1
7.630071 37.1
7.660366 37.1
7.690471 37.1
7.718648 37.1
7.746943 37.1
7.773026 37.1
7.801916 37.1
7.83284 37.1
7.866173 37.1
7.896872 37.1
7.929076 37.1
7.960855 37.1
7.990088 37.1
8.018362 37.1
8.047541 37.1
8.080874 37.1
8.110003 37.1
8.143335 37.1
8.171738 37.1
8.202553 37.1
8.23325 37.35
8.265712 37.1
8.295174 37.1
8.323363 36.45
8.356696 35.6
8.387564 35.6
8.418652 34.5
8.446709 34.5
8.476246 33.4
8.504085 33.4
8.534158 31.85
8.565815 30.35
8.599026 30.35
8.632359 27.7
8.665692 24.65
8.69529 24.65
8.728623 22.9
8.75872 21.8
8.788638 21.8
8.821972 21.15
8.852806 20.05
8.882265 20.05
8.915598 18.55
8.946432 18.55
8.973586 16.35
9.002913 12.65
9.032209 12.65
9.063869 9.35
9.092978 9.35
9.121941 6.95
9.149475 5.65
9.178809 5.65
9.212022 5
9.245356 5
9.278689 4.8
9.309155 4.8
9.337393 4.8
9.36939 4.8
9.399936 4.8
9.427542 4.8
9.45767 4.8
9.486523 4.8
9.519855 4.8
9.548664 4.8
9.580193 4.8
9.612221 4.8
9.645554 4.8
9.677578 4.8
9.710912 4.8
9.738049 4.8
9.770782 4.8
9.801903 4.8
9.835236 4.8
9.863353 4.8
9.89531 4.8
9.928643 4.8
9.958185 4.8
9.98732 4.8
10.01777 4.8
10.04565 4.8
10.07255 4.8
10.10086 4.8
10.12944 4.8
10.16277 4.8
10.19466 4.8
10.22716 4.8
10.2571 4.8
10.28449 4.8
10.31782 4.8
10.34952 4.8
10.37824 4.8
10.40775 4.8
10.44108 4.8
10.47157 4.8
10.50114 4.8
10.53447 4.8
10.56781 4.8
10.59806 4.8
10.62741 4.8
10.65604 4.8
10.68714 4.8
10.72007 4.8
10.7499 4.8
10.78134 4.8
10.81151 4.8
10.84094 4.8
10.87428 4.8
10.90215 4.8
10.93367 4.8
10.96039 4.8
10.99372 4.8
11.02093 4.8
11.05073 4.8
11.07831 4.8
11.10885 4.8
11.1378 4.8
11.17069 4.8
11.19874 4.8
11.23207 4.8
11.26026 4.8
11.29359 4.8
11.32154 4.8
11.3497 4.8
11.38193 4.8
11.4104 4.8
11.44292 4.8
11.47333 4.8
11.50449 4.8
11.53782 4.8
11.56743 4.8
11.60076 4.8
11.6312 4.8
11.66454 4.8
11.692 4.8
11.7229 4.8
11.75522 4.8
11.78597 4.8
11.81669 4.8
11.84858 4.8
11.88149 4.8
11.91145 4.8
11.94153 4.8
11.97094 4.8
12.00017 4.8
12.0335 4.8
12.06276 4.8
12.09319 4.8
12.12652 4.8
12.15577 4.8
12.18797 4.8
12.21599 4.8
12.24592 4.8
12.27533 4.8
12.30538 4.8
12.3364 4.8
12.36974 4.8
12.39832 4.8
12.42797 4.8
12.4581 4.8
12.48846 4.8
12.51796 4.8
12.54481 4.8
12.57322 4.8
12.60655 4.8
12.63843 4.8
12.67092 4.8
12.70318 4.8
12.73183 4.8
12.76288 4.8
12.79443 4.8
12.82776 4.8
12.86065 4.8
12.89398 4.8
12.92731 4.8
12.96065 4.8
12.99237 4.8
13.0257 4.8
13.05904 4.8
13.08892 4.8
13.12211 4.8
13.15406 4.8
13.18464 4.8
13.21328 4.8
13.2409 4.8
13.27159 4.8
13.30069 4.8
13.32961 4.8
13.36054 4.8
13.39388 4.8
13.42203 4.8
13.45433 4.8
13.48646 4.8
13.51541 4.8
13.5481 4.8
13.57975 4.8
13.60919 4.8
13.63848 4.8
13.67181 4.8
13.70152 4.8
13.73462 4.8
13.76739 4.8
13.79621 4.8
13.82512 4.8
13.85309 4.8
13.88206 4.8
13.91518 4.8
13.94353 4.8
13.97388 4.8
14.00578 4.8
14.03649 4.8
14.06712 4.8
14.10045 4.8
14.13061 4.8
14.16147 4.8
14.19077 4.8
14.22282 4.8
14.25333 4.8
14.2799 4.8
14.30897 4.8
14.33651 4.8
14.36866 4.8
14.39593 4.8
14.42632 4.8
14.45872 4.8
14.48967 4.8
14.51938 4.8
14.55236 4.8
14.58378 4.8
14.6134 4.8
14.64188 4.8
14.67507 4.8
14.70598 4.8
14.7354 4.8
14.76441 4.8
14.79301 4.8
14.82086 4.8
14.85419 4.8
14.88205 4.8
14.9128 4.8
14.94613 4.8
14.97475 4.8
15.00384 4.8
15.03429 4.8
15.06462 4.8
15.09796 4.8
15.12724 4.8
15.15612 4.8
15.1855 4.8
15.21884 4.8
15.24806 4.8
15.27872 4.8
15.30923 4.8
15.3412 4.8
15.37453 4.8
15.40786 4.8
15.43837 4.8
15.46678 4.8
15.495 4.8
15.52833 4.8
15.5566 4.8
15.58626 4.8
15.61837 4.8
15.64855 4.8
15.67714 4.8
15.70724 4.8
15.73544 4.8
15.76684 4.8
15.79927 4.8
15.82902 4.8
15.85922 4.8
15.88699 4.8
15.91562 4.8
15.94551 4.8
15.97516 4.8
16.00367 4.8
16.03276 4.8
16.06453 4.8
16.09786 4.8
16.12801 4.8
16.16015 4.8
16.1909 4.8
16.21914 4.8
16.25038 4.8
16.28163 4.8
16.31237 4.8
16.34028 4.8
16.37277 4.8
16.40442 4.8
16.43701 4.8
16.46506 4.8
16.49804 4.8
16.52599 4.8
16.55524 4.8
16.58857 4.8
16.61698 4.8
16.64821 4.8
16.68031 4.8
16.71009 4.8
16.73929 4.8
16.76836 4.8
16.80169 4.8
16.83007 4.8
16.85933 4.8
16.88754 4.8
16.9178 4.8
16.94653 4.8
16.97987 4.8
17.00891 4.8
17.04224 4.8
17.07557 4.8
17.1048 4.8
17.13652 4.8
17.16825 4.8
17.19644 4.8
17.22774 4.8
17.25625 4.8
17.28443 4.8
17.31776 4.8
17.34691 4.8
17.37541 4.8
17.40735 4.8
17.43594 4.8
17.46535 4.8
17.49338 4.8
17.52284 4.8
17.55569 4.8
17.5843 4.8
17.61596 4.8
17.64496 4.8
17.67631 4.8
17.70964 4.8
17.73882 4.8
17.76881 4.8
17.79789 4.8
17.82787 4.8
17.8612 4.8
17.89025 4.8
17.91774 4.8
17.95034 4.8
17.97981 4.8
18.00835 4.8
18.04029 4.8
18.06912 4.8
18.10081 4.8
18.13172 4.8
18.1637 4.8
18.19281 4.8
18.21983 4.8
18.24959 4.8
18.27764 4.8
18.31097 4.8
18.33957 4.8
18.36974 4.8
18.40079 4.8
18.43412 4.8
18.46405 4.8
18.49315 4.8
18.52427 4.8
18.55564 4.8
18.5846 4.8
18.61674 4.8
18.64554 4.8
18.67888 4.8
18.70705 4.8
18.73763 4.8
18.76593 4.8
18.79926 4.8
18.83259 4.8
18.86259 4.8
18.89317 4.8
18.92579 4.8
18.95361 4.8
18.98325 4.8
19.01095 4.8
19.0436 4.8
19.07379 4.8
19.1026 4.8
19.131 4.8
19.1613 4.8
19.19373 4.8
19.22389 4.8
19.25447 4.8
19.28617 4.8
19.3149 4.8
19.34455 4.8
19.37788 4.8
19.41121 4.8
19.4389 4.8
19.46729 4.8
19.49512 4.8
19.52501 4.8
19.55268 4.8
19.58357 4.8
19.6128 4.8
19.64547 4.8
19.67756 4.8
19.70845 4.8
19.73799 4.8
19.76869 4.8
19.80202 4.8
19.83536 4.8
19.86414 4.8
19.89549 4.8
19.92883 4.8
19.96216 4.8
19.99045 4.8
20.02378 4.8
20.0567 4.8
20.08759 4.8
20.1155 4.8
20.14475 4.8
20.17695 4.8
20.20723 4.8
20.23453 4.8
20.26786 4.8
20.30119 4.8
20.3313 4.8
20.36463 4.8
20.39484 4.8
20.42817 4.8
20.45686 4.8
20.48777 4.8
20.51636 4.8
20.5457 4.8
20.57416 4.8
20.60172 4.8
20.63505 4.8
20.66838 4.8
20.69632 4.8
20.72453 4.8
20.75368 4.8
20.78372 4.8
20.81251 4.8
20.84584 4.8
20.87469 4.8
20.90567 4.8
20.93901 4.8
20.96809 4.8
20.99977 4.8
21.03002 4.8
21.06336 4.8
21.09563 4.8
21.1242 4.8
21.15314 4.8
21.18508 4.8
21.21416 4.8
21.24409 4.8
21.27287 4.8
21.3031 4.8
21.33644 4.8
21.36656 4.8
21.39579 4.8
21.42736 4.8
21.45452 4.8
21.48785 4.8
21.51656 4.8
21.54989 4.8
21.57761 4.8
21.60715 4.8
21.63472 4.8
21.66588 4.8
21.69609 4.8
21.7249 4.8
21.756 4.8
21.78799 4.8
21.81936 4.8
21.85053 4.8
21.87968 4.8
21.91073 4.8
21.94406 4.8
21.97369 4.8
22.00261 4.8
22.03594 4.8
22.06824 4.8
22.09656 4.8
22.12771 4.8
22.15662 4.8
22.18933 4.8
22.22159 4.8
22.24921 4.8
22.27962 4.8
22.30862 4.8
22.3377 4.8
22.36952 4.8
22.39934 4.8
22.42679 4.8
22.45639 4.8
22.48973 4.8
22.52049 4.8
22.55063 4.8
22.58105 4.8
22.61045 4.8
22.64148 4.8
22.67068 4.8
22.70236 4.8
22.73441 4.8
22.76417 4.8
22.79369 4.8
22.82703 4.8
22.85892 4.8
22.89225 4.8
22.92287 4.8
22.95612 4.8
22.98477 4.8
23.0181 4.8
23.04674 4.8
23.07701 4.8
23.10532 4.8
23.13666 4.8
23.16449 4.8
23.19369 4.8
23.22241 4.8
23.25218 4.8
23.28226 4.8
23.3156 4.8
23.34363 4.8
23.37332 4.8
23.40117 4.8
23.43101 4.8
23.45915 4.8
23.49046 4.8
23.52018 4.8
23.55038 4.8
23.58371 4.8
23.61518 4.8
23.64851 4.8
23.6781 4.8
23.70736 4.8
23.74069 4.8
23.76923 4.8
23.80256 4.8
23.83392 4.8
23.86237 4.8
23.89208 4.8
23.92166 4.8
23.94948 4.8
23.98275 4.8
24.01608 4.8
24.04869 4.8
24.07782 4.8
24.11115 4.8
24.14038 4.8
24.17371 4.8
24.20582 4.8
24.237 4.8
24.26781 4.8
24.29605 4.8
24.32395 4.8
24.35391 4.8
24.38628 4.8
24.41962 4.8
24.44712 4.8
24.47784 4.8
24.51045 4.8
24.54233 4.8
24.57111 4.8
24.60032 4.8
24.63278 4.8
24.6659 4.8
24.69635 4.8
24.72725 4.8
24.75549 4.8
24.78773 4.8
24.81651 4.8
24.84985 4.8
24.87791 4.8
24.90668 4.8
24.93521 4.8
24.96662 4.8
24.99846 4.8
25.03031 4.8
25.05926 4.8
25.09259 4.8
25.12332 4.8
25.15613 4.8
25.18492 4.8
25.21704 4.8
25.24961 4.8
25.27894 4.8
25.30672 4.8
25.33706 4.8
25.36563 4.8
25.39425 4.8
25.42173 4.8
25.45292 4.8
25.48276 4.8
25.51332 4.8
25.54461 4.8
25.57625 4.8
25.60958 4.8
25.63911 4.8
25.67244 4.8
25.70086 4.8
25.72925 4.8
25.75845 4.8
25.79178 4.8
25.82165 4.8
25.85306 4.8
25.8821 4.8
25.91102 4.8
25.94436 4.8
25.97758 4.8
26.01033 4.8
26.03973 4.8
26.07159 4.8
26.10213 4.55
26.13182 4.55
26.16516 4.15
26.19849 3.45
26.22853 3.45
26.25821 2.4
26.29081 1.5
26.32014 1.5
26.35052 0.2
26.38385 -0.65
26.41184 -0.65
26.44165 -1.05
26.47498 -1.05
26.50444 -1.05
26.5338 -1.05
26.56471 -1.05
26.59774 -1.05
26.62671 -1.05
26.65523 -1.05
26.68622 -1.05
26.71848 -1.05
26.74839 -1.05
26.77993 -1.05
26.81327 -1.05
26.84462 -1.05
26.87568 -1.05
26.90463 -1.05
26.9364 -1.3
26.96973 -1.3
26.99974 -1.3
27.02889 -1.3
27.06222 -1.3
27.09208 -1.3
27.12434 -1.3
27.15555 -1.3
27.18566 -1.5
27.21899 -1.5
27.24801 -1.95
27.27641 -2.8
27.30651 -2.8
27.33984 -3.45
27.37214 -5.65
27.40002 -5.65
27.43246 -7.6
27.46264 -7.6
27.49597 -9.8
27.5235 -11.55
27.55644 -11.55
27.58414 -12.85
27.61368 -12.85
27.64307 -13.5
27.67456 -13.5
27.70628 -13.5
27.73962 -13.5
27.77113 -13.5
27.80446 -13.5
27.83501 -13.5
27.86682 -13.5
27.89443 -13.5
27.9237 -13.5
27.95157 -13.5
27.98157 -13.5
28.01259 -13.5
28.04134 -13.5
28.06946 -13.5
28.09958 -13.5
28.1296 -13.5
28.15817 -13.5
28.18599 -13.5
28.21932 -13.5
28.25044 -13.5
28.2788 -13.5
28.3078 -13.5
28.33925 -13.5
28.37258 -13.5
28.40374 -13.5
28.43535 -13.75
28.46868 -13.95
28.50056 -13.95
28.53182 -14.15
28.5598 -14.85
28.59313 -14.85
28.6217 -15.5
28.65213 -15.5
28.68114 -16.35
28.71355 -17
28.74395 -17
28.77517 -17.65
28.80374 -17.65
28.83597 -17.9
28.86878 -17.9
28.8985 -17.9
28.92758 -17.9
28.95789 -17.9
28.98782 -17.9
29.01697 -17.9
29.04563 -17.9
29.07565 -17.9
29.10708 -17.9
29.14042 -17.9
29.16929 -17.9
29.19973 -17.9
29.23098 -17.9
29.26043 -17.9
29.28865 -17.9
29.31764 -17.9
29.34748 -17.9
29.38081 -17.9
29.41081 -17.9
29.43988 -17.9
29.46877 -17.9
29.4975 -17.9
29.5296 -17.9
29.55915 -17.9
29.58842 -17.9
29.62175 -17.9
29.64963 -17.9
29.67769 -17.9
29.70576 -17.9
29.73549 -17.9
29.76411 -17.9
29.79745 -17.9
29.8263 -17.9
29.85881 -17.9
29.8889 -17.9
29.92046 -17.9
29.9538 -17.9
29.98565 -17.9
30.01423 -17.9
30.04333 -17.9
30.07208 -17.9
30.10149 -17.9
30.1316 -17.9
30.16048 -17.9
30.18933 -17.9
30.22212 -17.9
30.25381 -17.9
30.28418 -17.9
30.31752 -17.9
30.34666 -17.9
30.37578 -17.9
30.40476 -17.9
30.4333 -17.9
30.46582 -17.9
30.49572 -17.9
30.52905 -17.9
30.55766 -17.9
30.5881 -17.9
30.61654 -17.9
30.64505 -17.9
30.67787 -17.9
30.71121 -17.9
30.74044 -17.9
30.76934 -17.9
30.80205 -17.9
30.83222 -17.9
30.86287 -17.9
30.89523 -17.9
30.92311 -17.9
30.95644 -17.9
30.987 -17.9
31.02034 -17.9
31.04934 -18.1
31.07932 -18.1
31.10918 -18.55
31.13917 -19.2
31.16817 -19.2
31.19832 -19.4
31.22894 -19.4
31.26227 -20.3
31.2956 -20.5
31.32597 -20.5
31.35931 -20.75
31.38984 -20.75
31.41838 -20.75
31.4485 -20.5
31.48184 -20.05
31.51081 -20.05
31.54074 -19.65
31.56949 -19.65
31.60282 -19.65
31.63287 -19.65
31.66374 -19.65
31.69367 -19.85
31.72252 -19.85
31.75339 -19.85
31.78284 -19.85
31.81577 -19.85
31.84438 -19.85
31.87396 -19.65
31.9021 -19.65
31.93535 -19.85
31.96684 -19.85
32.00017 -20.05
32.0335 -20.75
32.06317 -20.75
32.09166 -21.6
32.12169 -22.5
32.14986 -22.5
32.18063 -22.7
32.21397 -22.7
32.24304 -22.7
32.27338 -22.9
32.30642 -22.9
32.33949 -22.9
32.37282 -23.15
32.40348 -23.15
32.43681 -23.35
32.46611 -23.35
32.49497 -23.35
32.52505 -23.35
32.55838 -23.35
32.58694 -23.35
32.61697 -23.35
32.6503 -23.35
32.67902 -23.35
32.70784 -23.35
32.73779 -23.35
32.76597 -23.35
32.79672 -23.35
32.8251 -23.35
32.85359 -23.35
32.88526 -23.35
32.91859 -23.35
32.94881 -23.35
32.98215 -23.35
33.01545 -23.35
33.04554 -23.35
33.07478 -23.35
33.10644 -23.35
33.13705 -23.35
33.16873 -23.35
33.20061 -23.35
33.22912 -23.35
33.25969 -23.35
33.28884 -23.35
33.3163 -23.35
33.34736 -23.35
33.37664 -23.35
33.40998 -23.35
33.43981 -23.35
33.47129 -23.35
33.49982 -23.35
33.52964 -23.35
33.56298 -23.35
33.59631 -23.35
33.62595 -23.35
33.65777 -23.35
33.68738 -23.35
33.71674 -23.35
33.74605 -23.35
33.77939 -23.35
33.80681 -23.35
33.83891 -23.35
33.87224 -23.35
33.90247 -23.35
33.93468 -23.35
33.9649 -23.35
33.99347 -23.35
34.02441 -23.35
34.05426 -23.35
34.08759 -23.35
34.11699 -23.35
34.14751 -23.35
34.17562 -23.35
34.20472 -23.35
34.23361 -23.35
34.26432 -23.35
34.29423 -23.35
34.32264 -23.35
34.35566 -23.35
34.3855 -23.35
34.41482 -23.35
34.44687 -23.55
34.4802 -23.8
34.51081 -23.8
34.54072 -24
34.57405 -24.2
34.60649 -24.2
34.63951 -24.2
34.67285 -24.2
34.70067 -24.2
34.734 -24.2
34.76669 -24.2
34.79454 -24.2
34.82619 -24.2
34.85499 -24.2
34.88537 -24.2
34.91576 -24.2
34.94909 -24.2
34.97778 -24.2
35.00713 -24.45
35.04047 -24.45
35.0687 -24.65
35.09665 -24.65
35.12728 -24.65
35.15732 -24.9
35.18739 -24.9
35.22072 -24.9
35.25406 -24.9
35.28319 -24.9
35.31652 -24.9
35.34493 -24.9
35.37457 -24.9
35.40632 -24.9
35.43569 -24.9
35.46291 -24.9
35.49216 -24.9
35.5216 -24.9
35.55144 -24.9
35.57987 -24.9
35.61018 -24.9
35.6398 -24.9
35.67173 -24.9
35.69957 -24.9
35.73086 -24.9
35.75855 -24.9
35.7912 -24.9
35.82124 -24.9
35.85141 -24.9
35.88475 -24.9
35.9133 -24.9
35.94664 -24.9
35.97997 -24.9
36.0133 -24.9
36.04144 -24.9
36.06896 -24.9
36.09807 -24.9
36.12762 -24.9
36.15818 -24.9
36.19151 -25.1
36.22279 -25.1
36.25309 -25.55
36.28125 -25.55
36.31054 -25.95
36.34236 -26.65
36.37114 -26.65
36.40073 -27.3
36.42884 -27.3
36.46217 -28.15
36.48994 -28.6
36.52327 -28.6
36.55418 -29.25
36.58726 -29.9
36.61724 -29.9
36.64689 -30.55
36.68023 -31.2
36.71204 -31.2
36.74489 -31.85
36.77372 -32.3
36.80165 -32.3
36.83499 -32.95
36.86386 -32.95
36.89394 -33.6
36.92307 -34.25
36.95549 -34.25
36.98577 -34.95
37.01858 -34.95
37.0481 -35.6
37.078 -36.65
37.1081 -36.65
37.14011 -37.35
37.16798 -37.35
37.19956 -38.4
37.23289 -39.1
37.26622 -39.1
37.29483 -40.4
37.32584 -41.5
37.35387 -41.5
37.383 -42.35
37.41069 -42.35
37.4439 -43.25
37.47724 -44.3
37.50611 -44.3
37.53751 -45.2
37.56874 -46.3
37.59759 -46.3
37.62901 -47.15
37.66063 -47.15
37.68999 -48.05
37.72171 -49.35
37.75202 -49.35
37.78016 -50.65
37.81019 -50.65
37.84352 -51.75
37.87506 -53.3
37.90483 -53.3
37.93454 -55
37.96256 -55
37.99284 -56.35
38.02096 -58.3
38.05429 -58.3
38.08258 -59.85
38.11212 -61.6
38.14205 -61.6
38.175 -63.55
38.20402 -63.55
38.23642 -65.75
38.26537 -67.7
38.29421 -67.7
38.32722 -69.45
38.35591 -69.45
38.3842 -71.4
38.41272 -72.7
38.44069 -72.7
38.47351 -74.45
38.50151 -74.45
38.53484 -75.55
38.56517 -76.45
38.59586 -76.45
38.6273 -77.1
38.6566 -77.5
38.68742 -77.5
38.71825 -77.75
38.74949 -77.75
38.78218 -77.95
38.81551 -78.2
38.84515 -78.2
38.87323 -78.6
38.90311 -78.85
38.93074 -78.85
38.96407 -78.85
38.99178 -78.85
39.02009 -78.85
39.05342 -78.85
39.08316 -78.85
39.11311 -78.85
39.1438 -78.85
39.17521 -78.85
39.20701 -78.85
39.23778 -78.85
39.26664 -78.85
39.29474 -78.85
39.32351 -78.85
39.3549 -78.85
39.38421 -78.85
39.41642 -78.85
39.44551 -78.85
39.47316 -78.85
39.5065 -78.85
39.5355 -78.85
39.56884 -78.85
39.60005 -78.85
39.62812 -78.85
39.65642 -78.85
39.68687 -78.85
39.71654 -78.2
39.74921 -77.5
39.77798 -77.5
39.81131 -76.85
39.84299 -76.85
39.87561 -75.55
39.90866 -74.7
39.942 -74.7
39.97533 -74.05
40.00526 -73.6
40.03548 -73.6
40.06526 -73.35
40.09449 -73.35
40.12565 -73.35
40.15447 -73.35
40.18497 -73.35
40.21831 -73.35
40.25164 -73.35
40.28036 -73.35
40.3106 -73.35
40.33829 -73.35
40.36798 -73.35
40.39619 -73.35
40.42632 -73.35
40.45617 -73.35
40.48511 -73.35
40.51844 -73.35
40.54789 -73.35
40.58123 -73.35
40.61456 -73.35
40.64309 -73.6
40.67643 -73.8
40.70534 -73.8
40.73614 -73.8
40.76856 -73.8
40.8019 -73.8
40.83162 -73.8
40.86169 -73.8
40.89074 -73.8
40.92407 -73.8
40.95136 -73.8
40.98015 -73.8
41.00777 -73.8
41.04111 -74.05
41.07252 -74.05
41.10284 -74.05
41.13587 -74.45
41.16762 -74.7
41.19848 -74.7
41.23182 -74.9
41.26251 -75.1
41.29399 -75.1
41.32357 -75.1
41.35691 -75.1
41.39024 -75.1
41.42175 -75.1
41.45325 -75.1
41.48307 -75.1
41.51215 -75.1
41.54261 -75.1
41.57495 -75.1
41.60828 -75.35
41.63679 -75.35
41.67012 -75.55
41.69907 -75.55
41.73024 -75.55
41.76358 -75.55
41.79691 -75.55
41.83025 -75.55
41.86225 -75.55
41.89018 -75.55
41.92204 -75.55
41.95367 -75.55
41.98371 -75.55
42.01537 -75.55
42.04871 -75.55
42.07657 -75.55
42.10536 -75.55
42.13602 -75.55
42.1665 -75.8
42.19382 -76.2
42.22224 -76.2
42.25068 -76.65
42.28165 -76.65
42.31294 -76.85
42.34628 -77.1
42.37849 -77.1
42.40821 -77.3
42.44155 -77.3
42.47023 -77.3
42.49785 -77.3
42.52862 -77.3
42.56195 -77.3
42.59042 -77.3
42.61839 -77.3
42.64881 -77.3
42.67757 -77.3
42.70722 -77.3
42.73632 -77.3
42.76957 -77.3
42.80291 -77.3
42.83624 -77.3
42.86411 -77.3
42.89301 -77.3
42.92144 -77.3
42.95084 -77.3
42.98417 -77.3
43.0175 -77.3
43.04908 -77.3
43.07951 -77.3
43.10739 -77.3
43.13656 -77.3
43.1699 -77.3
43.19827 -77.3
43.22699 -77.3
43.25697 -77.3
43.28909 -77.3
43.31866 -77.3
43.35195 -77.3
43.38411 -76.85
43.41448 -76.85
43.44764 -76
43.47615 -76
43.50668 -74.45
43.5349 -72.7
43.56333 -72.7
43.59487 -70.75
43.62754 -70.75
43.66088 -69.2
43.68975 -67.05
43.72309 -67.05
43.75255 -64.4
43.78115 -61.8
43.81262 -61.8
43.84246 -57.65
43.87272 -57.65
43.90219 -52.6
43.93258 -48.25
43.96591 -48.25
43.99898 -43
44.02698 -37.35
44.05948 -37.35
44.08826 -33.6
44.11832 -33.6
44.1458 -29.9
44.17445 -29.9
44.20248 -23.8
44.23581 -20.3
44.26719 -20.3
44.29999 -12.45
44.32724 -6.3
44.35645 -6.3
44.38869 2.15
44.41962 2.15
44.44696 10.7
44.4803 15.7
44.50868 15.7
44.53842 20.3
44.56796 20.3
44.59657 24
44.62654 27.3
44.65863 27.3
44.69197 29.45
44.7253 33.4
44.75491 33.4
44.78436 37.55
44.81345 37.55
44.84373 40.8
44.87439 45.2
44.90334 45.2
44.9319 49.35
44.96406 49.35
44.99589 52.4
45.02922 55.45
45.05722 55.45
45.08816 57.45
45.11785 59.6
45.14817 59.6
45.17603 61.35
45.20936 61.35
45.23706 63.3
45.26668 65.05
45.29829 65.05
45.32757 66.6
45.35607 66.6
45.3894 67.05
45.41961 67.05
45.45294 67.05
45.48292 67.05
45.51569 67.05
45.54403 67.05
45.57679 66.8
45.60546 66.8
45.6388 66.6
45.66793 65.5
45.69691 65.5
45.73024 63.75
45.76163 62.25
45.79172 62.25
45.82292 60.25
45.85233 58.5
45.88549 58.5
45.91394 56.55
45.94284 56.55
45.97586 54.8
46.00779 52.2
46.03684 52.2
46.06912 49.8
46.0998 49.8
46.12992 47.15
46.16183 45.2
46.19516 45.2
46.22272 42.15
46.25173 42.15
46.28265 39.5
46.31452 35.8
46.34239 35.8
46.37339 32.95
46.40115 32.95
46.43333 29.9
46.46167 27.3
46.49264 27.3
46.52031 25.55
46.55008 25.55
46.58037 24.2
46.6137 23.55
46.64225 23.55
46.67361 23.15
46.70502 22.9
46.73835 22.9
46.76836 22.9
46.79777 22.9
46.82551 22.9
46.85584 22.7
46.88918 22.7
46.92017 22.7
46.94941 22.7
46.97952 22.5
47.01276 22.25
47.04364 22.25
47.07266 22.25
47.10275 22.25
47.13046 22.25
47.15926 22.25
47.18949 22.25
47.22282 22.25
47.25345 22.5
47.28495 22.5
47.314 23.15
47.3449 24
47.37339 24
47.40308 25.55
47.43577 25.55
47.46589 27.7
47.49359 30.55
47.52406 30.55
47.55476 33.2
47.58525 33.2
47.61792 36.45
47.65071 39.3
47.68189 39.3
47.71426 42.55
47.7476 45.65
47.77708 45.65
47.80612 47.8
47.83502 47.8
47.8627 50.2
47.8935 52.85
47.92276 52.85
47.9511 55
47.97905 55
48.00792 58.1
48.03565 58.1
48.06898 61.35
48.09714 64.65
48.12856 64.65
48.15729 67.5
48.18648 67.5
48.21582 71.2
48.24617 75.55
48.27895 75.55
48.31202 78.85
48.34184 82.55
48.36989 82.55
48.40134 86.25
48.43108 86.25
48.4595 88.65
48.48909 91.5
48.52232 91.5
48.55054 95
48.57875 95
48.60819 97.6
48.64152 100.25
48.66994 100.25
48.70167 104.15
48.73152 104.15
48.76033 108.75
48.79366 112.9
48.82476 112.9
48.85394 118.35
48.88512 118.35
48.91496 124.05
48.94463 129.75
48.97395 129.75
49.00627 133.65
49.03657 137.15
49.06655 137.15
49.09784 139.15
49.13037 139.15
49.15892 140.85
49.19041 142.4
49.22374 142.4
49.25252 143.7
49.28386 143.7
49.3118 146.55
49.34197 148.75
49.36952 148.75
49.40285 151.6
49.43368 151.6
49.46701 153.75
49.49643 155.95
49.52469 155.95
49.55434 157.05
49.5833 157.05
49.61069 157.5
49.64193 157.5
49.67169 157.5
49.70464 157.5
49.73331 157.5
49.76159 157.5
49.78998 157.5
49.82331 157.5
49.85428 157.7
49.88405 157.7
49.91204 157.9
49.94538 158.35
49.97764 158.35
50.01097 158.55
50.03869 158.55
50.06751 158.55
50.09521 158.55
50.12425 158.55
50.15134 158.55
50.18112 158.55
50.21288 158.55
50.2421 158.55
50.26997 158.55
50.29823 158.15
50.32774 158.15
50.35858 156.8
50.38728 155.05
50.42061 155.05
50.44975 153.55
50.47954 153.55
50.51159 152.25
50.54093 151.15
50.57018 151.15
50.60196 149.85
50.63087 149.85
50.65942 147.65
50.69038 144.8
50.72048 144.8
50.74874 141.95
50.7818 141.95
50.81028 139.15
50.84362 135.85
50.87312 135.85
50.90282 133.45
50.93084 133.45
50.95971 131.9
50.9885 131.5
51.02184 131.5
51.04992 131.5
51.07974 131.5
51.10906 131.7
51.13765 133
51.16623 133
51.19672 135.65
51.22479 135.65
51.25813 138.45
51.28571 143.3
51.31781 143.3
51.34809 148.75
51.37674 153.55
51.40648 153.55
51.43841 159
51.46758 159
51.4968 162.95
51.53013 167.3
51.55865 167.3
51.59198 171.45
51.62063 171.45
51.65396 175.8
51.68599 179.3
51.71631 179.3
51.74651 184.15
51.77899 187.85
51.81232 187.85
51.8448 192
51.87779 195.25
51.91113 195.25
51.94004 198.55
51.97073 200.95
52.00352 200.95
52.03154 204.2
52.06071 204.2
52.09261 207.05
52.12586 210.55
52.15444 210.55
52.18372 214.05
52.21464 216.9
52.24248 216.9
52.27533 218.4
52.30381 218.4
52.33185 218.4
52.36472 218.2
52.39443 218.2
52.42724 218.4
52.45903 218.4
52.49236 218.4
52.52019 218.4
52.54964 218.4
52.57803 218.4
52.61137 218.4
52.64076 218.4
52.67387 218.4
52.7044 218.4
52.73262 218.4
52.76448 218.4
52.79536 218.4
52.82511 218.4
52.85514 218.4
52.88407 218.4
52.91435 218.4
52.94768 218.4
52.97939 218.4
53.01197 218.4
53.0453 218.4
53.07864 218.4
53.11023 218.4
53.14356 218.4
53.17496 218.4
53.20263 218.4
53.23596 218.4
53.26929 218.4
53.30236 218.4
53.32993 218.4
53.36061 218.4
53.39025 218.4
53.42198 218.4
53.45422 218.4
53.48626 218.4
53.5196 218.4
53.54853 218.4
53.57758 218.4
53.60607 218.4
53.6394 218.4
53.66951 218.4
53.69841 218.4
53.72768 218.4
53.76101 218.4
53.78944 218.4
53.82204 218.4
53.85537 218.4
53.88315 218.4
53.91207 218.4
53.9454 218.4
53.9733 218.4
54.00362 218.4
54.03334 218.4
54.06667 218.4
54.09579 218.4
54.12912 218.4
54.16245 218.4
54.19579 218.4
54.22334 218.4
54.25089 218.4
54.28351 218.4
54.31093 218.4
54.34003 218.4
54.36786 218.4
54.39936 218.4
54.42672 218.4
54.45662 218.4
54.48862 218.4
54.51756 218.4
54.54504 218.4
54.57433 218.4
54.60766 218.4
54.641 218.4
54.67433 218.4
54.70766 218.4
54.73591 218.4
54.76587 218.4
54.79336 218.4
54.82174 218.4
54.85388 218.4
54.88302 218.4
54.91122 218.4
54.94115 218.4
54.96942 218.4
55.00275 218.4
55.03135 218.4
55.06085 218.4
55.09066 218.4
55.1194 218.4
55.14768 218.4
55.18102 218.4
55.21435 218.4
55.24405 218.4
55.27723 218.4
55.31056 218.4
55.33928 218.4
55.36958 218.4
55.40117 218.4
55.43021 218.4
55.4615 218.4
55.4941 218.4
55.52435 218.4
55.55306 218.4
55.58142 218.4
55.61161 218.4
55.64489 218.4
55.67618 218.4
55.70699 218.4
55.74032 218.4
55.76869 218.4
55.80072 218.4
55.83405 218.4
55.86252 218.4
55.89169 218.4
55.92021 218.4
55.95354 218.4
55.98687 218.4
56.01406 218.4
56.04352 218.4
56.07521 218.4
56.10751 218.4
56.13627 218.4
56.16574 218.4
56.19644 218.4
56.22804 218.4
56.25728 218.4
56.28754 218.4
56.32087 218.4
56.35421 218.4
56.38204 218.4
56.41094 218.4
56.43812 218.4
56.46655 218.4
56.49546 218.4
56.52645 218.4
56.55874 218.4
56.58762 218.4
56.61676 218.4
56.64901 218.4
56.67756 218.4
56.70843 218.4
56.73687 218.4
56.76612 218.4
56.7983 218.4
56.83163 218.4
56.86497 218.4
56.8983 218.4
56.9278 218.4
56.957 218.4
56.98561 218.4
57.015 218.4
57.04833 218.4
57.07769 218.4
57.10603 218.4
57.13528 218.4
57.16401 218.4
57.19355 218.4
57.2235 218.4
57.25434 218.4
57.28767 218.4
57.318 218.4
57.34923 218.4
57.37995 218.4
57.40739 218.4
57.43617 218.4
57.4676 218.4
57.50093 218.4
57.53427 218.4
57.56395 218.4
57.59341 218.4
57.62422 218.4
57.6571 218.4
57.68708 218.4
57.71508 218.4
57.7449 218.4
57.77823 218.4
57.80771 218.4
57.83686 218.4
57.86659 218.4
57.89421 218.4
57.92289 218.4
57.95145 218.4
57.98478 218.4
58.01323 218.4
58.04656 218.4
58.07989 218.4
58.10959 218.4
58.13631 218.4
58.16497 218.4
58.19519 218.4
58.22551 218.4
58.25884 218.4
58.29218 218.4
58.32551 218.4
58.35538 218.4
58.3832 218.4
58.41355 218.4
58.44192 218.4
58.47136 218.4
58.49901 218.4
58.53234 218.4
58.56071 218.4
58.59275 218.4
58.62598 218.4
58.65932 218.4
58.68772 218.4
58.72105 218.4
58.75368 218.4
58.78691 218.4
58.82024 218.4
58.85358 218.4
58.88135 218.4
58.91468 218.4
58.94802 218.4
58.97745 218.4
59.00554 218.4
59.03704 218.4
59.07037 218.4
59.09943 218.4
59.12732 218.4
59.15646 218.4
59.18575 218.4
59.21909 218.4
59.24908 218.4
59.28241 218.4
59.31417 218.4
59.34751 218.4
59.37785 218.4
59.4073 218.4
59.43548 218.4
59.46715 218.4
59.49496 218.4
59.52829 218.4
59.55785 218.4
59.58928 218.4
59.61701 218.4
59.64587 218.4
59.67453 218.4
59.70366 218.4
59.73699 218.4
59.76803 218.4
59.7965 218.4
59.82679 218.4
59.85905 218.4
59.89239 218.4
59.922 218.4
59.95301 218.4
59.98635 218.4
60.01517 218.4
60.04433 218.4
60.0752 218.4
60.10797 218.4
60.13694 218.4
60.16589 218.4
60.19823 218.4
60.22583 218.4
60.25727 218.4
60.28638 218.4
60.31605 218.4
60.34737 218.4
60.38026 218.4
60.40995 218.4
60.44117 218.4
60.47035 218.4
60.50368 218.4
60.53291 218.4
60.56624 218.4
60.59463 218.4
60.62423 218.4
60.65344 218.4
60.6846 218.4
60.71241 218.4
60.74408 218.4
60.77339 218.4
60.80287 218.4
60.83542 218.4
60.86875 218.4
60.89823 218.4
60.93097 218.4
60.95946 218.4
60.98943 218.4
61.02276 218.4
61.055 218.4
61.08425 218.4
61.11348 218.4
61.14572 218.4
61.17521 218.4
61.20675 218.4
61.2364 218.4
61.26522 218.4
61.29855 218.4
61.32997 218.4
61.35862 218.4
61.38931 218.4
61.42188 218.4
61.4515 218.4
61.48298 218.4
61.51333 218.4
61.54638 218.4
61.57718 218.4
61.60717 218.4
61.63663 218.4
61.66705 218.4
61.70038 218.4
61.73371 218.4
61.76122 218.4
61.79112 218.4
61.82446 218.4
61.85742 218.4
61.88667 218.4
61.91541 218.4
61.94205 218.4
61.97392 218.4
62.00188 218.4
62.03207 218.4
62.0646 218.4
62.0955 218.4
62.12883 218.4
62.16206 218.4
62.19473 218.4
62.22807 218.4
62.25925 218.4
62.29259 218.4
62.32398 218.4
62.35312 218.4
62.38557 218.4
62.417 218.4
62.44671 218.4
62.48005 218.4
62.5097 218.4
62.54304 218.4
62.57637 218.4
62.60756 218.4
62.63723 218.4
62.66702 218.4
62.69673 218.4
62.72633 218.4
62.75843 218.4
62.79158 218.4
62.82343 218.4
62.85647 218.4
62.8898 218.4
62.92314 218.4
62.9525 218.4
62.98416 218.4
63.01749 218.4
63.04816 218.4
63.07878 218.4
63.11012 218.4
63.14325 218.4
63.17275 218.4
63.20311 218.4
63.23289 218.4
63.26058 218.4
63.29348 218.4
63.3238 218.4
63.35599 218.4
63.38481 218.4
63.41628 218.4
63.44552 218.4
63.47885 218.4
63.5106 218.4
63.54068 218.4
63.57337 218.4
63.60622 218.4
63.6349 218.4
63.66559 218.4
63.69606 218.4
63.7294 218.4
63.75795 218.4
63.78746 218.4
63.81507 218.4
63.84801 218.4
63.87584 218.4
63.90918 218.4
63.94251 218.4
63.97194 218.4
64.00386 218.4
64.03548 218.4
64.06881 218.4
64.09819 218.4
64.12626 218.4
64.15959 218.4
64.18855 218.4
64.22189 218.4
64.25152 218.4
64.28225 218.4
64.31558 218.4
64.3456 218.4
64.37894 218.4
64.41228 218.4
64.43926 218.4
64.47016 218.4
64.50013 218.4
64.53239 218.4
64.56242 218.4
64.59163 218.4
64.6207 218.4
64.65404 218.4
64.6834 218.4
64.71672 218.4
64.75005 218.4
64.78085 218.4
64.81419 218.4
64.84752 218.4
64.87988 218.4
64.91322 218.4
64.94338 218.4
64.97456 218.4
65.0079 218.4
65.03925 218.4
65.07239 218.4
65.10572 218.4
65.1352 218.4
65.16605 218.4
65.19822 218.4
65.22828 218.4
65.26076 218.4
65.29207 218.4
65.32148 218.4
65.3546 218.4
65.38346 218.4
65.416 218.4
65.44933 218.4
65.4805 218.4
65.5115 218.4
65.54101 218.4
65.57434 218.4
65.60387 218.4
65.63683 218.4
65.66858 218.4
65.70192 218.4
65.73475 218.4
65.76353 218.4
65.79686 218.4
65.82537 218.4
65.85452 218.4
65.88419 218.4
65.91441 218.4
65.94247 218.4
65.97581 218.4
66.00336 218.4
66.03344 218.4
66.06268 218.4
66.09193 218.4
66.12037 218.4
66.15015 218.4
66.18024 218.4
66.20952 218.4
66.24285 218.4
66.27434 218.4
66.30545 218.4
66.33477 218.4
66.36295 218.4
66.39628 218.4
66.42961 218.4
66.4586 218.4
66.48893 218.4
66.52226 218.4
66.55251 218.4
66.58427 218.4
66.6145 218.4
66.64783 218.4
66.67823 218.4
66.70931 218.4
66.73878 218.4
66.76791 218.4
66.79633 218.4
66.82449 218.4
66.85699 218.4
66.89033 218.4
66.9199 218.4
66.95258 218.4
66.98142 218.4
67.01027 218.4
67.04172 218.4
67.07307 218.4
67.1064 218.4
67.13731 218.4
67.16518 218.4
67.19464 218.4
67.22433 218.4
67.25382 218.4
67.28371 218.4
67.31264 218.4
67.34202 218.4
67.37535 218.4
67.4034 218.4
67.43294 218.4
67.46499 218.4
67.49452 218.4
67.52425 218.4
67.55334 218.4
67.58668 218.4
67.61739 218.4
67.65072 218.4
67.68152 218.4
67.70974 218.4
67.74307 218.4
67.7709 218.4
67.80136 218.4
67.8345 218.4
67.86459 218.4
67.89793 218.4
67.92822 218.4
67.95855 218.4
67.9886 218.4
68.02193 218.4
68.05113 218.4
68.07919 218.4
68.11245 218.4
68.13988 218.4
68.171 218.4
68.20434 218.4
68.23767 218.4
68.26945 218.4
68.30135 218.4
68.33029 218.4
68.36362 218.4
68.39696 218.4
68.42564 218.4
68.45898 218.4
68.48917 218.4
68.52239 218.4
68.55132 218.4
68.57919 218.4
68.60992 218.4
68.63882 218.4
68.67215 218.4
68.70245 218.4
68.73228 218.4
68.76414 218.4
68.79379 218.4
68.82334 218.4
68.85645 218.4
68.88486 218.4
68.91318 218.4
68.94651 218.4
68.97769 218.4
69.00597 218.4
69.03541 218.4
69.06399 218.4
69.09732 218.4
69.12909 218.4
69.16212 218.4
69.19545 218.4
69.22878 218.4
69.25578 218.4
69.28428 218.4
69.31341 218.4
69.34565 218.4
69.37613 218.4
69.40867 218.4
69.4403 218.4
69.47301 218.4
69.50234 218.4
69.53317 218.4
69.56164 218.4
69.5905 218.4
69.62383 218.4
69.65224 218.4
69.68041 218.4
69.71261 218.4
69.74173 218.4
69.77151 218.4
69.80003 218.4
69.82977 218.4
69.8571 218.4
69.88528 218.4
69.91371 218.4
69.9436 218.4
69.97186 218.4
70.00507 218.4
70.03722 218.4
70.06791 218.4
70.0959 218.4
70.12923 218.4
70.16257 218.4
70.19437 218.4
70.22401 218.4
70.25735 218.4
70.28568 218.4
70.31789 218.4
70.34533 218.4
70.37659 218.4
70.40488 218.4
70.43448 218.4
70.46281 218.4
70.49615 218.4
70.52796 218.4
70.55672 218.4
70.58636 218.4
70.61865 218.4
70.64633 218.4
70.67966 218.4
70.71129 218.4
70.74042 218.4
70.77375 218.4
70.80686 218.4
70.83578 218.4
70.86744 218.4
70.90015 218.4
70.93027 218.4
70.95999 218.4
70.99332 218.4
71.02666 218.4
71.05601 218.4
71.08633 218.4
71.11967 218.4
71.14831 218.2
71.18164 218.2
71.21167 218.2
71.241 218.2
71.27047 218.2
71.30095 216.9
71.32836 214.95
71.3571 214.95
71.38489 212.3
71.41822 212.3
71.44684 208.6
71.47705 205.3
71.50499 205.3
71.5351 201.15
71.56432 201.15
71.59344 197.65
71.62678 192.65
71.66011 192.65
71.69268 188.95
71.72242 184.15
71.75503 184.15
71.78505 179.1
71.81266 179.1
71.84241 173.4
71.87575 166.65
71.90462 166.65
71.93795 162.7
71.97128 155.05
72.00185 155.05
72.03069 147
72.06059 138.7
72.09388 138.7
72.12283 132.15
72.15509 132.15
72.18336 122.3
72.2167 114.45
72.24669 114.45
72.27898 103.3
72.3079 90.85
72.33824 90.85
72.37157 80.8
72.40235 70.1
72.43438 70.1
72.46403 63.3
72.4934 63.3
72.52296 55.9
72.55109 49.8
72.58442 49.8
72.61195 42.8
72.64284 42.8
72.67478 32.3
72.70811 20.5
72.73816 20.5
72.7683 8.95
72.7991 8.95
72.83063 -3.25
72.85889 -11.35
72.88761 -11.35
72.91677 -18.55
72.94605 -18.55
72.97882 -23.55
73.00905 -30.35
73.03989 -30.35
73.06998 -36.65
73.09825 -36.65
73.12881 -41.9
73.16214 -48.45
73.19547 -48.45
73.22442 -55.45
73.25775 -62
73.28725 -62
73.31844 -67.5
73.3496 -74.7
73.38293 -74.7
73.41627 -81.9
73.4448 -87.35
73.47277 -87.35
73.5061 -94.55
73.53551 -94.55
73.56535 -102.45
73.59357 -109
73.6257 -109
73.65497 -116.2
73.6879 -116.2
73.72124 -123.4
73.75037 -128.4
73.78017 -128.4
73.81161 -133.25
73.84041 -138.25
73.86992 -138.25
73.8983 -143.95
73.93163 -143.95
73.96355 -150.25
73.99432 -155.3
74.02765 -155.3
74.05682 -161.65
74.08549 -167.95
74.11626 -167.95
74.1496 -173
74.18293 -179.3
74.2162 -179.3
74.24792 -184.55
74.27704 -184.55
74.31037 -191.1
74.33824 -197.65
74.37143 -197.65
74.40094 -202.9
74.43428 -209.7
74.46292 -209.7
74.49194 -217.35
74.52045 -217.35
74.55365 -218.4
74.58688 -218.4
74.61656 -218.4
74.64622 -218.4
74.67955 -218.4
74.70946 -218.4
74.74097 -218.4
74.76997 -218.4
74.8033 -218.4
74.83118 -218.4
74.86076 -218.4
74.88844 -218.4
74.92177 -218.4
74.95245 -218.4
74.98248 -218.4
75.01077 -218.4
75.03991 -218.4
75.06782 -218.4
75.09695 -218.4
75.12936 -218.4
75.15844 -218.4
75.18625 -218.4
75.21607 -218.4
75.2494 -218.4
75.28272 -218.4
75.31207 -218.4
75.3454 -218.4
75.37873 -218.4
75.40762 -218.4
75.43769 -218.4
75.46682 -218.4
75.4978 -218.4
75.52896 -218.4
75.56165 -218.4
75.59431 -218.4
75.62294 -218.4
75.6533 -218.4
75.68285 -218.4
75.71234 -218.4
75.7401 -218.4
75.77237 -218.4
75.80215 -218.4
75.83549 -218.4
75.86835 -218.4
75.90169 -218.4
75.93324 -218.4
75.96426 -218.4
75.99644 -218.4
76.02709 -218.4
76.05622 -218.4
76.08955 -218.4
76.11897 -218.4
76.14991 -218.4
76.17821 -218.4
76.20779 -218.4
76.23687 -218.4
76.2702 -218.4
76.29978 -218.4
76.33133 -218.4
76.36466 -218.4
76.39395 -218.4
76.42152 -218.4
76.45322 -218.4
76.4811 -218.4
76.50948 -218.4
76.54084 -218.4
76.56926 -218.4
76.59716 -218.4
76.62624 -218.4
76.65506 -218.4
76.68382 -218.4
76.71162 -218.4
76.74496 -218.4
76.77264 -218.4
76.80565 -218.4
76.83334 -218.4
76.86272 -218.4
76.89352 -218.4
76.92245 -218.4
76.95093 -218.4
76.98252 -218.4
77.01064 -218.4
77.04356 -218.4
77.07323 -218.4
77.1035 -218.4
77.13133 -218.4
77.16055 -218.4
77.18822 -218.4
77.21811 -218.4
77.24641 -218.4
77.27968 -218.4
77.31302 -218.4
77.34635 -218.4
77.37374 -218.4
77.40237 -218.4
77.43571 -218.4
77.46471 -218.4
77.49725 -218.4
77.52746 -218.4
77.5559 -218.4
77.58879 -218.4
77.62212 -218.4
77.65063 -218.4
77.68397 -218.4
77.7173 -218.4
77.75064 -218.4
77.78371 -218.4
77.81206 -218.4
77.84492 -218.4
77.8755 -218.4
77.90884 -218.4
77.9391 -218.4
77.96979 -218.4
77.99772 -218.4
78.02997 -218.4
78.05807 -218.4
78.0914 -218.4
78.11889 -218.4
78.15222 -218.4
78.18094 -218.4
78.21182 -218.4
78.23949 -218.4
78.27108 -218.4
78.30172 -218.4
78.33057 -218.4
78.35853 -218.4
78.39161 -218.4
78.41905 -218.4
78.44894 -218.4
78.47945 -218.4
78.5111 -218.4
78.54149 -218.4
78.57402 -218.4
78.60735 -218.4
78.63636 -218.4
78.66618 -218.4
78.69701 -218.4
78.72591 -218.4
78.75524 -218.4
78.7874 -218.4
78.81625 -218.4
78.84737 -218.4
78.87941 -218.4
78.91274 -218.4
78.94251 -218.4
78.97081 -218.4
78.99895 -218.4
79.026 -218.4
79.05875 -218.4
79.09208 -218.4
79.1254 -218.4
79.1578 -218.4
79.18945 -218.4
79.21947 -218.4
79.24895 -218.4
79.2767 -218.4
79.31003 -218.4
79.34336 -218.4
79.37611 -218.4
79.4043 -218.4
79.43452 -218.4
79.46412 -218.4
79.49361 -218.4
79.52298 -218.4
79.55366 -218.4
79.58208 -218.4
79.61542 -218.4
79.64304 -218.4
79.67259 -218.4
79.7001 -218.4
79.73017 -218.4
79.76075 -218.4
79.79369 -218.4
79.82703 -218.4
79.85747 -218.4
79.88543 -218.4
79.91876 -218.4
79.94784 -218.4
79.976 -218.4
80.00338 -218.4
80.0334 -218.4
80.06673 -218.4
80.09708 -218.4
80.12592 -218.4
80.15597 -218.4
80.18658 -218.4
80.21616 -218.4
80.24487 -218.4
80.27505 -218.4
80.30733 -218.4
80.33608 -218.4
80.36342 -218.4
80.39207 -218.4
80.42311 -218.4
80.45239 -218.4
80.48544 -218.4
80.51791 -218.4
80.55125 -218.4
80.58163 -218.4
80.60934 -218.4
80.63954 -218.4
80.67281 -218.4
80.70458 -218.4
80.73289 -218.4
80.76193 -218.4
80.79117 -218.4
80.82116 -218.4
80.85306 -218.4
80.88306 -218.4
80.91335 -218.4
80.94308 -218.4
80.97167 -218.4
81.0004 -218.4
81.02979 -218.4
81.06304 -218.4
81.09637 -218.4
81.12542 -218.4
81.15403 -218.4
81.18421 -218.4
81.21164 -218.4
81.24079 -218.4
81.27034 -218.4
81.29922 -218.4
81.32853 -218.4
81.35757 -218.4
81.38709 -218.4
81.41564 -218.4
81.44479 -218.4
81.47308 -218.4
81.50626 -218.4
81.53951 -218.4
81.57014 -218.4
81.59972 -218.4
81.62863 -218.4
81.65724 -218.4
81.6874 -218.4
81.71969 -218.4
81.75191 -218.4
81.78524 -218.4
81.81268 -218.4
81.84601 -218.4
81.87411 -218.4
81.90744 -218.4
81.94077 -218.4
81.97141 -218.4
82.00433 -218.4
82.03388 -218.4
82.06285 -218.4
82.09317 -218.4
82.12264 -218.4
82.15359 -218.4
82.18404 -218.4
82.21584 -218.4
82.24662 -218.4
82.27995 -218.4
82.30804 -218.4
82.3375 -218.4
82.36533 -218.4
82.39453 -218.4
82.4251 -218.4
82.45383 -218.4
82.48315 -218.4
82.51648 -218.4
82.54505 -218.4
82.57392 -218.4
82.60145 -218.4
82.63068 -218.4
82.66209 -218.4
82.6902 -218.4
82.71944 -218.4
82.74915 -218.4
82.77893 -218.4
82.81226 -218.4
82.84333 -218.4
82.8719 -218.4
82.90298 -218.4
82.93313 -218.4
82.96122 -218.4
82.99371 -218.4
83.02335 -218.4
83.05206 -218.4
83.08462 -218.4
83.11795 -218.4
83.15001 -218.4
83.18042 -218.4
83.20928 -218.4
83.23983 -218.4
83.26808 -218.4
83.30141 -218.4
83.33056 -218.4
83.3639 -218.4
83.39178 -218.4
83.42091 -218.4
83.44939 -218.4
83.47763 -218.4
83.50538 -218.4
83.53871 -218.4
83.57204 -218.4
83.60096 -218.4
83.6283 -218.4
83.65694 -218.4
83.68481 -218.4
83.71627 -218.4
83.74693 -218.4
83.78026 -218.4
83.81354 -218.4
83.8424 -218.4
83.87384 -218.4
83.90525 -218.4
83.9337 -218.4
83.96212 -218.4
83.98971 -218.4
84.01842 -218.4
84.0464 -218.4
84.07807 -218.4
84.10603 -218.4
84.13602 -218.4
84.16936 -218.4
84.2025 -218.4
84.23052 -218.4
84.26132 -218.4
84.29313 -218.4
84.32393 -218.4
84.3556 -218.4
84.38432 -218.4
84.41267 -218.4
84.44601 -218.4
84.4737 -218.4
84.50299 -218.4
84.5337 -218.4
84.56431 -218.4
84.59159 -218.4
84.62241 -218.4
84.64998 -218.4
84.68331 -218.4
84.71664 -218.4
84.74909 -218.4
84.78094 -218.4
84.8119 -218.4
84.84349 -218.4
84.87582 -218.4
84.90755 -218.4
84.93578 -218.4
84.96386 -218.4
84.99287 -218.4
85.02489 -218.4
85.05407 -218.4
85.08337 -218.4
85.11253 -218.4
85.14147 -218.4
85.17168 -218.4
85.20281 -218.4
85.23615 -218.4
85.26377 -218.4
85.29269 -218.4
85.32487 -218.4
85.35539 -218.4
85.38873 -218.4
85.42207 -218.4
85.4497 -218.4
85.47799 -218.4
85.50574 -218.4
85.53543 -218.4
85.56419 -218.4
85.59326 -218.4
85.62418 -218.4
85.6544 -218.4
85.68773 -218.4
85.71661 -218.4
85.74451 -218.4
85.77785 -218.4
85.8055 -218.4
85.8344 -218.4
85.86149 -218.4
85.89072 -218.4
85.92307 -218.4
85.95245 -218.4
85.98189 -218.4
86.01215 -218.4
86.04098 -218.4
86.06958 -218.4
86.09824 -218.4
86.13129 -218.4
86.16412 -218.4
86.19746 -218.4
86.22522 -218.4
86.25378 -218.4
86.28355 -218.4
86.31357 -218.4
86.34249 -218.4
86.37386 -218.4
86.40337 -218.4
86.43529 -218.4
86.46862 -218.4
86.49805 -218.4
86.52543 -218.4
86.55579 -218.4
86.58486 -218.4
86.61678 -218.4
86.64709 -218.4
86.68042 -218.4
86.71023 -218.4
86.74356 -218.4
86.77291 -218.4
86.80264 -218.4
86.83597 -218.4
86.8643 -218.4
86.89261 -218.4
86.92264 -218.4
86.95019 -218.4
86.98352 -218.4
87.01304 -218.4
87.04264 -218.4
87.07056 -218.4
87.10056 -218.4
87.12917 -218.4
87.15977 -218.4
87.1931 -218.4
87.22643 -218.4
87.25937 -218.4
87.28761 -218.4
87.32026 -218.4
87.34986 -218.4
87.37913 -218.4
87.40765 -218.4
87.44099 -218.4
87.47224 -218.4
87.50163 -218.4
87.53497 -218.4
87.56385 -218.4
87.59311 -218.4
87.62512 -218.4
87.65557 -218.4
87.68365 -218.4
87.71313 -218.4
87.74134 -218.4
87.77467 -218.4
87.80314 -218.4
87.83647 -218.4
87.8652 -218.4
87.89397 -218.4
87.92195 -218.4
87.95247 -218.4
87.98566 -218.4
88.01627 -218.4
88.04503 -218.4
88.07462 -218.4
88.1053 -218.4
88.13472 -218.4
88.16806 -218.4
88.19775 -218.4
88.22724 -218.4
88.26057 -218.4
88.28915 -218.4
88.31943 -218.4
88.34701 -218.4
88.37673 -218.4
88.40404 -218.4
88.43542 -218.4
88.46795 -218.4
88.49709 -218.4
88.5249 -218.4
88.55549 -218.4
88.58441 -218.4
88.6148 -218.4
88.64579 -218.4
88.67597 -218.4
88.70741 -218.4
88.74074 -218.4
88.76839 -218.4
88.79777 -218.4
88.82638 -218.4
88.8569 -218.4
88.88488 -218.4
88.91417 -218.4
88.9472 -218.4
88.97845 -218.4
89.01178 -218.4
89.04025 -218.4
89.0681 -218.4
89.09807 -218.4
89.12795 -218.4
89.15639 -218.4
89.18877 -218.4
89.21752 -218.4
89.24841 -218.4
89.27676 -218.4
89.30814 -218.4
89.34058 -218.4
89.36935 -218.4
89.40269 -218.4
89.43137 -218.4
89.4647 -218.4
89.49405 -218.4
89.52473 -218.4
89.55444 -218.4
89.58423 -218.4
89.61623 -218.4
89.64956 -218.4
89.67735 -218.4
89.70623 -218.4
89.73956 -218.4
89.76894 -218.4
89.79922 -218.4
89.83116 -218.4
89.85876 -218.4
89.8921 -218.4
89.92543 -218.4
89.95679 -218.4
89.98447 -218.4
90.01457 -218.4
90.04321 -218.4
90.07233 -218.4
90.10566 -218.4
90.13585 -218.4
90.16918 -218.4
90.19913 -218.4
90.23007 -218.4
90.2607 -218.4
90.28944 -218.4
90.32278 -218.4
90.35611 -218.4
90.38848 -218.4
90.42048 -218.4
90.44936 -218.4
90.47852 -218.4
90.5098 -218.4
90.53923 -218.4
90.57256 -218.4
90.60093 -218.4
90.62976 -218.4
90.66148 -218.4
90.69134 -218.4
90.71928 -218.4
90.7482 -218.4
90.78114 -218.4
90.81211 -218.4
90.84084 -218.4
90.87177 -218.4
90.90511 -218.4
90.9342 -218.4
90.96584 -218.4
90.99802 -218.4
91.02975 -218.4
91.05936 -218.4
91.08849 -218.4
91.1194 -218.4
91.15273 -218.4
91.18204 -218.4
91.2109 -218.4
91.2438 -218.4
91.27193 -218.4
91.30094 -218.4
91.3298 -218.4
91.35876 -218.4
91.38692 -218.4
91.42026 -218.4
91.44906 -218.4
91.48239 -218.4
91.5107 -218.4
91.54403 -218.4
91.57485 -218.4
91.60444 -218.4
91.63702 -218.4
91.67035 -218.4
91.70061 -218.4
91.7321 -218.4
91.76008 -218.4
91.78959 -218.4
91.81938 -218.4
91.84886 -218.4
91.87817 -218.4
91.91151 -218.4
91.94012 -218.4
91.96879 -218.4
92.00212 -218.4
92.03351 -218.4
92.06215 -218.4
92.09376 -218.4
92.12233 -218.4
92.15208 -218.4
92.18542 -218.4
92.21544 -218.4
92.24333 -218.4
92.27256 -218.4
92.30058 -218.4
92.33274 -218.4
92.365 -218.4
92.39365 -218.4
92.42698 -218.4
92.45654 -218.4
92.48488 -218.4
92.51596 -218.4
92.54459 -218.4
92.57671 -218.4
92.60527 -218.4
92.63442 -218.4
92.66241 -218.4
92.69574 -218.4
92.7239 -218.4
92.75723 -218.4
92.78675 -218.4
92.81921 -218.4
92.84869 -218.4
92.88182 -218.4
92.91503 -218.4
92.94836 -218.4
92.9794 -218.4
93.01241 -218.4
93.0423 -218.4
93.07418 -218.4
93.10106 -218.4
93.13289 -218.4
93.16104 -218.4
93.19405 -218.4
93.22378 -218.4
93.2566 -218.4
93.28423 -218.4
93.31756 -218.4
93.34692 -218.4
93.37615 -218.4
93.40752 -218.4
93.43708 -218.4
93.46535 -218.4
93.49869 -218.4
93.5284 -218.4
93.55914 -218.4
93.58726 -218.4
93.62059 -218.4
93.65295 -218.4
93.68184 -218.4
93.71509 -218.4
93.74418 -218.4
93.77751 -218.4
93.81084 -218.4
93.83938 -218.4
93.86935 -218.4
93.89761 -218.4
93.93094 -218.4
93.95949 -218.4
93.99252 -218.4
94.02454 -218.4
94.05622 -218.4
94.08358 -218.4
94.11655 -218.4
94.14557 -218.4
94.1789 -218.4
94.20608 -218.4
94.2385 -218.4
94.27156 -218.4
94.29969 -218.4
94.33302 -218.4
94.36504 -218.4
94.39476 -218.4
94.42692 -218.4
94.45465 -218.4
94.48561 -218.4
94.51894 -218.4
94.54771 -218.4
94.576 -218.4
94.60483 -218.4
94.63519 -218.4
94.66852 -218.4
94.69627 -218.4
94.72961 -218.4
94.75762 -218.4
94.78759 -218.4
94.81768 -218.4
94.84715 -218.4
94.8744 -218.4
94.9044 -218.4
94.93257 -218.4
94.9659 -218.4
94.99483 -218.4
95.02817 -218.4
95.0615 -218.4
95.09406 -218.4
95.12396 -218.4
95.15238 -218.4
95.18103 -218.4
95.21178 -218.4
95.2409 -218.4
95.27197 -218.4
95.30061 -218.4
95.33394 -218.4
95.36349 -218.4
95.39683 -218.4
95.42451 -218.4
95.45538 -218.4
95.4857 -218.4
95.51414 -218.4
95.54636 -218.4
95.57717 -218.4
95.60587 -218.4
95.63815 -218.4
95.67148 -218.4
95.70148 -218.4
95.73202 -218.4
95.76339 -218.4
95.79231 -218.4
95.82542 -218.4
95.85329 -218.4
95.88265 -218.4
95.91047 -218.4
95.93959 -218.4
95.96867 -218.4
95.99995 -218.4
96.02952 -218.4
96.05859 -218.4
96.09071 -218.4
96.12404 -218.4
96.15737 -218.4
96.18673 -218.4
96.21567 -218.4
96.24847 -218.4
96.27541 -218.4
96.30399 -218.4
96.3308 -218.4
96.36056 -218.4
96.39326 -218.4
96.42304 -218.4
96.45551 -218.4
96.48485 -218.4
96.51473 -218.4
96.54807 -218.4
96.58012 -218.4
96.61018 -218.4
96.64067 -218.4
96.67042 -218.4
96.69939 -218.4
96.72974 -218.4
96.75855 -218.4
96.79189 -218.4
96.81924 -218.4
96.85258 -218.4
96.8812 -218.4
96.91379 -218.4
96.94566 -218.4
96.97772 -218.2
97.00657 -218.2
97.03709 -218.2
97.07043 -218.2
97.10332 -218.2
97.13595 -218.2
97.16467 -218.2
97.19295 -217.35
97.22215 -217.35
97.25434 -215.35
97.28348 -213.4
97.31118 -213.4
97.34029 -207.5
97.37055 -207.5
97.40388 -201.15
97.43148 -195.7
97.4604 -195.7
97.49309 -189.35
97.5248 -180
97.55347 -180
97.5868 -173.65
97.61694 -173.65
97.65027 -165.35
97.67854 -156.4
97.70941 -156.4
97.73755 -149.85
97.76674 -141.55
97.79414 -141.55
97.82748 -135
97.85469 -135
97.88802 -130.8
97.9165 -129.3
97.94984 -129.3
97.98192 -127.55
98.01116 -126
98.03935 -126
98.07269 -124.5
98.10062 -124.5
98.13035 -121.85
98.16368 -119.25
98.1939 -119.25
98.22279 -117.05
98.25612 -117.05
98.28355 -114
98.31688 -111.6
98.34429 -111.6
98.37762 -109.2
98.41096 -105.7
98.44381 -105.7
98.47593 -103.5
98.50536 -100.9
98.53325 -100.9
98.56658 -99.35
98.59808 -99.35
98.63142 -98.3
98.6593 -98.3
98.68873 -98.3
98.71994 -97.6
98.75166 -97.6
98.77942 -94.35
98.80947 -90.65
98.83653 -90.65
98.86987 -87.35
98.89776 -87.35
98.93109 -85.6
98.9597 -83.65
98.9915 -83.65
99.01956 -83.2
99.04916 -83.2
99.07738 -83.2
99.10562 -83.2
99.13518 -83.2
99.16507 -83.2
99.1936 -83.2
99.22694 -83.2
99.25547 -83.2
99.2888 -83.2
99.31745 -83.2
99.34799 -83.2
99.38132 -83.2
99.40982 -83.2
99.44315 -83.2
99.47649 -83.2
99.50424 -83.2
99.53426 -83.2
99.56683 -82.55
99.59839 -81.9
99.6261 -81.9
99.65614 -81
99.68391 -81
99.71642 -80.35
99.74738 -79.95
99.77637 -79.95
99.80728 -79.7
99.83703 -79.7
99.86936 -79.25
99.90039 -78.85
99.92881 -78.85
99.9607 -77.95
99.9928 -77.95
100.0225 -76.45
100.0555 -75.1
100.0851 -75.1
100.1135 -73.6
100.1422 -73.6
100.1755 -72.5
100.2088 -71.85
100.2373 -71.85
100.2706 -71.65
100.3003 -71.65
100.333 -71.65
100.3616 -71.65
100.3949 -71.65
100.4236 -71.65
100.4535 -71.65
100.4864 -71.65
100.5181 -71.65
100.5489 -71.65
100.58 -71.65
100.6112 -71.65
100.6445 -71.2
100.6778 -71.2
100.7112 -70.3
100.7393 -69.45
100.7693 -69.45
100.7972 -68.55
100.827 -68.55
100.8545 -67.7
100.8861 -67.05
100.9195 -67.05
100.9524 -66.6
100.9834 -66.6
101.0122 -66.15
101.0399 -65.95
101.0688 -65.95
101.0993 -65.75
101.1321 -65.75
101.1627 -65.3
101.1952 -64.65
101.2251 -64.65
101.2579 -63.3
101.2904 -62.45
101.3224 -62.45
101.3508 -60.9
101.3803 -60.9
101.4083 -59.6
101.4379 -58.3
101.4654 -58.3
101.4987 -56.75
101.5318 -56.75
101.5652 -55.7
101.5941 -54.6
101.6238 -54.6
101.6559 -52.85
101.6865 -51.75
101.7175 -51.75
101.7486 -50.65
101.7819 -48.9
101.8124 -48.9
101.8415 -47.8
101.8745 -47.8
101.903 -46.7
101.9321 -45.4
101.9602 -45.4
101.9935 -44.3
102.0225 -42.8
102.0557 -42.8
102.089 -41.5
102.12 -41.5
102.148 -39.5
102.1802 -37.75
102.21 -37.75
102.2416 -36
102.275 -34.5
102.306 -34.5
102.3338 -32.95
102.3671 -32.95
102.3975 -31.85
102.4291 -30.55
102.4565 -30.55
102.4891 -29.25
102.5169 -29.25
102.5471 -27.5
102.578 -25.95
102.6113 -25.95
102.639 -24.2
102.6707 -22.7
102.6982 -22.7
102.7267 -20.75
102.7544 -20.75
102.7876 -19
102.821 -17.25
102.8521 -17.25
102.8798 -15.25
102.9119 -15.25
102.9446 -13.75
102.9779 -12.85
103.0061 -12.85
103.0362 -12.65
103.0636 -12.65
103.092 -12.65
103.1209 -12.65
103.1543 -12.65
103.1876 -12.65
103.2209 -11.75
103.248 -11.75
103.2767 -10.7
103.3083 -9.15
103.337 -9.15
103.3678 -7.4
103.4008 -7.4
103.4341 -5.65
103.4675 -3.9
103.5001 -3.9
103.5314 -2.8
103.5588 -1.5
103.5922 -1.5
103.6204 -0.2
103.6489 -0.2
103.676 1.05
103.7054 2.4
103.7386 2.4
103.7719 3.9
103.8001 5
103.8309 5
103.8642 5.45
103.8976 5.45
103.9264 5.45
103.9588 5.45
103.9877 5.45
104.0164 5.45
104.0452 5.45
104.0756 5.45
104.1043 5.45
104.1325 5.45
104.1605 5.45
104.1911 5.45
104.224 5.45
104.2541 5.45
104.2807 5.45
104.3103 5.45
104.3404 5.45
104.3738 5.45
104.407 5.45
104.4369 5.45
104.4663 5.45
104.4955 5.45
104.5244 5.45
104.5537 5.45
104.5834 5.45
104.6168 5.45
104.646 5.45
104.6743 5.45
104.7061 5.45
104.7394 5.45
104.7677 5.45
104.801 5.45
104.8337 5.45
104.862 5.45
104.8906 5.45
104.9202 5.45
104.9492 5.45
104.9825 5.45
105.0106 5.45
105.0439 5.45
105.0722 5.45
105.1024 5.45
105.1316 5.45
105.1612 5.45
105.1906 5.45
105.2191 5.45
105.247 5.45
105.2803 5.45
105.3074 5.45
105.3371 5.45
105.3683 5.45
105.3973 5.45
105.4247 5.45
105.453 5.45
105.4796 5.45
105.5129 5.45
105.5439 5.45
105.5772 5.45
105.6105 5.45
105.6415 5.45
105.6701 5.45
105.7008 5.45
105.7293 5.45
105.7584 5.45
105.7864 5.45
105.818 5.45
105.8465 5.45
105.8756 5.45
105.904 5.45
105.9331 5.45
105.9646 5.45
105.998 5.45
106.0313 5.45
106.0633 5.45
106.0924 5.45
106.1233 5.45
106.151 5.45
106.1812 5.45
106.2115 5.45
106.2422 5.45
106.2755 5.45
106.3086 5.45
106.3375 5.45
106.3705 5.45
106.4019 5.45
106.4339 5.45
106.4672 5.45
106.5004 5.45
106.529 5.45
106.5623 5.45
106.5908 5.45
106.6222 5.45
106.6556 5.45
106.6865 5.45
106.7163 5.45
106.7496 5.45
106.7783 5.45
106.8109 5.45
106.8385 5.45
106.8718 5.45
106.903 5.45
106.9329 5.45
106.9663 5.45
106.9996 5.45
107.0287 5.45
107.0587 5.45
107.0885 5.45
107.1194 5.45
107.1527 5.45
107.1826 5.85
107.2142 5.85
107.2476 6.75
107.2766 7.85
107.3059 7.85
107.3372 8.95
107.3704 8.95
107.4028 9.6
107.4361 10.45
107.4652 10.45
107.4985 11.1
107.5289 11.55
107.558 11.55
107.5891 11.75
107.6209 12.2
107.6534 12.2
107.6839 12.45
107.7154 12.65
107.7487 12.65
107.7778 12.65
107.8087 12.65
107.839 12.65
107.8686 12.65
107.897 12.65
107.9285 12.65
107.9557 12.65
107.9882 12.65
108.0187 12.65
108.0521 12.65
108.0834 12.65
108.1137 12.65
108.1418 12.65
108.1722 12.65
108.2055 12.65
108.2388 12.85
108.2722 13.5
108.3048 13.5
108.3325 13.75
108.3655 13.95
108.3935 13.95
108.426 14.4
108.4534 14.4
108.4848 14.85
108.5164 15.05
108.5456 15.05
108.5758 15.05
108.6091 15.05
108.6386 15.05
108.6694 15.05
108.7003 15.05
108.7322 15.5
108.7655 16.6
108.7949 16.6
108.824 17.9
108.8549 18.55
108.8838 18.55
108.9127 19.2
108.9408 19.2
108.9714 19.65
109.0016 19.65
109.034 19.65
109.0626 19.65
109.0932 19.65
109.1219 19.2
109.1512 19.2
109.1784 18.1
109.2117 15.05
109.2417 15.05
109.2729 11.55
109.3025 11.55
109.3345 8.5
109.3649 6.1
109.3982 6.1
109.4282 3.9
109.4605 3.05
109.4893 3.05
109.5186 2.8
109.5485 2.8
109.5818 2.8
109.6108 2.8
109.6397 2.8
109.6691 2.8
109.7025 2.6
109.7305 2.6
109.7602 1.7
109.788 1.7
109.8167 -0.65
109.8454 -0.65
109.8788 -1.05
109.9121 -1.05
109.9452 -1.05
109.9732 -1.05
110.003 -1.05
110.0335 -1.05
110.064 -1.05
110.0914 -1.05
110.1203 -1.05
110.1484 -0.85
110.1817 -0.85
110.2112 -0.4
110.2423 -0.4
110.2729 0.65
110.3047 1.05
110.3332 1.05
110.3621 1.3
110.3906 1.3
110.4208 1.3
110.4492 1.3
110.4799 1.3
110.5133 1.3
110.5423 1.3
110.5711 1.3
110.6011 1.3
110.6311 1.3
110.6606 1.3
110.6897 1.3
110.7192 1.3
110.7476 1.3
110.781 1.3
110.8115 1.3
110.8404 1.3
110.8688 1.3
110.9006 1.3
110.9297 1.3
110.9596 1.3
110.9886 1.3
111.0186 1.3
111.0467 1.3
111.0758 1.3
111.1036 1.3
111.1326 1.3
111.1645 1.3
111.1947 1.3
111.2238 1.3
111.2538 1.3
111.285 1.3
111.3151 1.3
111.3435 1.3
111.3769 1.3
111.4047 1.3
111.4347 1.3
111.467 1.3
111.4977 1.3
111.5253 1.3
111.556 1.3
111.5841 1.3
111.6126 1.3
111.6414 1.3
111.6748 1.3
111.7053 1.3
111.737 1.3
111.7649 1.3
111.7956 1.3
111.8228 1.3
111.8533 1.3
111.882 1.3
111.9153 1.3
111.9438 1.3
111.9771 1.3
112.0056 1.3
112.0361 1.3
112.0642 1.3
112.093 1.3
112.121 1.3
112.15 1.3
112.1776 1.3
112.2076 1.3
112.241 1.3
112.2708 1.3
112.2987 1.3
112.3306 1.3
112.3585 1.3
112.387 1.3
112.4176 1.3
112.4476 1.3
112.481 1.3
112.5139 1.3
112.5458 1.3
112.5743 1.3
112.603 1.3
112.6363 1.3
112.6649 1.3
112.6949 1.3
112.7282 1.3
112.7616 1.3
112.7884 1.3
112.8185 1.3
112.8474 1.3
112.8768 1.3
112.9064 1.3
112.938 1.3
112.9707 1.3
112.9997 1.3
113.0326 1.3
113.066 1.3
113.0966 1.3
113.1299 1.3
113.162 1.3
113.1954 1.3
113.2287 1.3
113.2572 1.3
113.2848 1.3
113.3181 1.3
113.3449 1.3
113.3745 1.3
113.4031 1.3
113.4314 1.3
113.4596 1.3
113.4902 1.3
113.5185 1.3
113.5498 1.3
113.5801 1.3
113.6114 1.3
113.6407 1.3
113.6695 1.3
113.7029 1.3
113.7352 1.3
113.7655 1.3
113.794 1.3
113.8218 1.3
113.851 1.3
113.8779 1.3
113.9079 1.3
113.9412 1.3
113.9723 1.3
114.0005 1.3
114.0287 1.3
114.0582 1.3
114.0912 1.3
114.12 1.3
114.1528 1.3
114.1819 1.3
114.2131 1.3
114.2432 1.3
114.2732 1.3
114.301 1.3
114.3335 1.3
114.3605 1.3
114.3891 1.3
114.4174 1.3
114.4489 1.3
114.482 1.3
114.5103 1.3
114.5374 1.3
114.5664 1.3
114.5936 1.3
114.6217 1.3
114.6495 1.3
114.6829 1.3
114.7131 1.3
114.7456 1.3
114.7765 1.3
114.8097 1.3
114.8425 1.3
114.8732 1.3
114.9036 1.3
114.9345 1.3
114.9662 1.3
114.9957 1.3
115.0258 1.3
115.0539 1.3
115.0823 1.3
115.1121 1.3
115.1405 1.3
115.169 1.3
115.1987 1.3
115.2287 1.3
115.2565 1.3
115.287 1.3
115.318 1.3
115.3481 1.3
115.3776 1.3
115.4109 1.3
115.439 1.3
115.4723 1.3
115.5033 1.3
115.5319 1.3
115.559 1.3
115.5887 1.3
115.6165 1.3
115.6448 1.3
115.6721 1.3
115.7019 1.3
115.7352 1.3
115.7684 1.3
115.7992 1.3
115.8325 1.3
115.8658 1.3
115.8953 1.3
115.9261 1.3
115.9571 1.3
115.9845 1.3
116.0178 1.3
116.0482 1.3
116.0807 1.3
116.1083 1.3
116.1373 1.3
116.1653 1.3
116.1987 1.3
116.2316 1.3
116.2604 1.3
116.2922 1.3
116.3256 1.3
116.3536 1.3
116.3869 1.3
116.416 1.3
116.445 1.3
116.4729 1.3
116.5022 1.3
116.5302 1.3
116.5592 1.3
116.5873 1.3
116.617 1.3
116.6467 1.3
116.6764 1.3
116.7073 1.3
116.7383 1.3
116.7682 1.3
116.7982 1.3
116.8276 1.3
116.8575 1.3
116.8859 1.3
116.9145 1.3
116.9429 1.3
116.9762 1.3
117.0081 1.3
117.0377 1.3
117.0673 1.3
117.0965 1.3
117.1259 1.3
117.1559 1.3
117.1836 1.3
117.2169 1.3
117.2447 1.3
117.274 1.3
117.3061 1.3
117.3395 1.3
117.3728 1.3
117.406 1.3
117.4355 1.3
117.4682 1.3
117.4994 1.3
117.531 1.3
117.5584 1.3
117.5901 1.3
117.6201 1.3
117.6496 1.3
117.6781 1.3
117.7109 1.3
117.7386 1.3
117.7711 1.3
117.8033 1.3
117.8336 1.3
117.8609 1.3
117.8894 1.3
117.9186 1.3
117.9481 1.3
117.9794 1.3
118.0082 1.3
118.0351 1.3
118.066 1.3
118.0955 1.3
118.1289 1.3
118.1587 1.3
118.1886 1.3
118.2162 1.3
118.247 1.3
118.2747 1.3
118.303 1.3
118.3326 1.3
118.3652 1.3
118.3924 1.3
118.4218 1.3
118.4506 1.3
118.4814 1.3
118.5133 1.3
118.5461 1.3
118.5749 1.3
118.6082 1.3
118.6408 1.3
118.6694 1.3
118.7027 1.3
118.732 1.3
118.7588 1.3
118.7902 1.3
118.8215 1.3
118.8504 1.3
118.8774 1.3
118.9066 1.3
118.9341 1.3
118.9641 1.3
118.9961 1.3
119.028 1.3
119.0589 1.3
119.0872 1.3
119.1204 1.3
119.1523 1.3
119.1794 1.3
119.2088 1.3
119.2367 1.3
119.2701 1.3
119.2976 1.3
119.3284 1.3
119.3555 1.3
119.3853 1.3
119.4154 1.3
119.4447 1.3
119.4738 1.3
119.5031 1.3
119.5321 1.3
119.5647 1.3
119.5916 1.3
119.6209 1.3
119.6509 1.3
119.6798 1.3
119.7107 1.3
119.7419 1.3
119.7699 1.3
119.8004 1.3
119.8274 1.3
119.8608 1.3
119.888 1.3
119.9191 1.3
119.9462 1.3
119.9753 1.3
120.0076 1.3
120.0379 1.3
120.0692 1.3
120.098 1.3
120.1277 1.3
120.1566 1.3
120.1885 1.3
120.2198 1.3
120.2476 1.3
120.2762 1.3
120.3047 1.3
120.3342 1.3
120.3628 1.3
120.3942 1.3
120.4232 1.3
120.4565 1.3
120.4834 1.3
120.5137 1.3
120.5417 1.3
120.5722 1.3
120.5996 1.3
120.6329 1.3
120.6616 1.3
120.6908 1.3
120.7196 1.3
120.752 1.3
120.7854 1.3
120.8139 1.3
120.8414 1.3
120.8698 1.3
120.8988 1.3
120.9321 1.3
120.9655 1.3
120.9942 1.3
121.0226 1.3
121.0524 1.3
121.0835 1.3
121.1129 1.3
121.1462 1.3
121.1795 1.3
121.2075 1.3
121.2409 1.3
121.2711 1.3
121.3027 1.3
121.3309 1.3
121.3595 1.3
121.3914 1.3
121.4206 1.3
121.4482 1.3
121.4765 1.3
121.5061 1.3
121.536 1.3
121.566 1.3
121.5993 1.3
121.6327 1.3
121.6614 1.3
121.6889 1.3
121.7176 1.3
121.7454 1.3
121.7756 1.3
121.8046 1.3
121.8332 1.3
121.8604 1.3
121.8895 1.3
121.9229 1.3
121.9523 1.3
121.9848 1.3
122.0128 1.3
122.0404 1.3
122.0689 1.3
122.099 1.3
122.128 1.3
122.1577 1.3
122.1878 1.3
122.2186 1.3
122.25 1.3
122.2816 1.3
122.311 1.3
122.3385 1.3
122.3672 1.3
122.3961 1.3
122.4244 1.3
122.4548 1.3
122.4839 1.3
122.5118 1.3
122.5406 1.3
122.5725 1.3
122.6023 1.3
122.6299 1.3
122.6591 1.3
122.6922 1.3
122.7225 1.3
122.7519 1.3
122.7824 1.3
122.812 1.3
122.8413 1.3
122.8728 1.3
122.9062 1.3
122.9336 1.3
122.9646 1.3
122.9952 1.3
123.0251 1.3
123.0549 1.3
123.0849 1.3
123.1148 1.3
123.1446 1.3
123.1741 1.3
123.2075 1.3
123.2397 1.3
123.2718 1.3
123.3018 1.3
123.3352 1.3
123.363 1.3
123.3931 1.3
123.4208 1.3
123.4503 1.3
123.4773 1.3
123.5067 1.3
123.5341 1.3
123.5674 1.3
123.5981 1.3
123.6266 1.3
123.6563 1.3
123.6867 1.3
123.7177 1.3
123.7485 1.3
123.7793 1.3
123.8117 1.3
123.8431 1.3
123.8764 1.3
123.9073 1.3
123.9382 1.3
123.9654 1.3
123.9962 1.3
124.0247 1.3
124.0547 1.3
124.0839 1.3
124.1123 1.3
124.1403 1.3
124.1729 1.3
124.205 1.3
124.2356 1.3
124.2639 1.3
124.2935 1.3
124.3209 1.3
124.3508 1.3
124.3842 1.3
124.4167 1.3
124.4436 1.3
124.4747 1.3
124.504 1.3
124.5333 1.3
124.5609 1.3
124.5926 1.3
124.6199 1.3
124.6485 1.3
124.6774 1.3
124.7099 1.3
124.741 1.3
124.7719 1.3
124.7998 1.3
124.8302 1.3
124.8602 1.3
124.8936 1.3
124.922 1.3
124.952 1.3
124.9843 1.3
125.0125 1.3
125.0403 1.3
125.0715 1.3
125.1013 1.3
125.1304 1.3
125.161 1.3
125.19 1.3
125.2172 1.3
125.2463 1.3
125.2775 1.3
125.3108 1.3
125.3442 1.3
125.3744 1.3
125.4026 1.3
125.4351 1.3
125.463 1.3
125.4943 1.3
125.5277 1.3
125.5585 1.3
125.5916 1.3
125.6209 1.3
125.6509 1.3
125.6842 1.3
125.7175 1.3
125.7459 1.3
125.7754 1.3
125.8045 1.3
125.8346 1.3
125.8635 1.3
125.8918 1.3
125.9219 1.3
125.9511 1.3
125.9805 1.3
126.0091 1.3
126.0415 1.3
126.0731 1.3
126.103 1.3
126.1342 1.3
126.1631 1.3
126.1925 1.3
126.221 1.3
126.2544 1.3
126.2833 1.3
126.3111 1.3
126.341 1.3
126.3743 1.3
126.4076 1.3
126.4352 1.3
126.4649 1.3
126.4982 1.3
126.5284 1.3
126.5562 1.3
126.5865 1.3
126.6198 1.3
126.6507 1.3
126.6813 1.3
126.7136 1.3
126.7436 1.3
126.7732 1.3
126.8019 1.3
126.8352 1.3
126.868 1.3
126.8981 1.3
126.9278 1.3
126.957 1.3
126.9901 1.3
127.0221 1.3
127.0508 1.3
127.0809 1.3
127.1091 1.3
127.1375 1.3
127.1647 1.3
127.1933 1.3
127.2256 1.3
127.2589 1.3
127.2855 1.3
127.3187 1.3
127.3456 1.3
127.3789 1.3
127.4095 1.3
127.4401 1.3
127.4692 1.3
127.5003 1.3
127.529 1.3
127.5602 1.3
127.589 1.3
127.6207 1.3
127.6495 1.3
127.6804 1.3
127.7081 1.3
127.7366 1.3
127.7639 1.3
127.7951 1.3
127.8228 1.3
127.8529 1.3
127.8834 1.3
127.9124 1.3
127.9405 1.3
127.97 1.3
128.0033 1.3
128.0341 1.3
128.0628 1.3
128.0948 1.3
128.123 1.3
128.1516 1.3
128.1842 1.3
128.2136 1.3
128.2417 1.3
128.2735 1.3
128.3031 1.3
128.3358 1.3
128.3686 1.3
128.399 1.3
128.43 1.3
128.4608 1.3
128.4941 1.3
128.5243 1.3
128.5529 1.3
128.5852 1.3
128.6132 1.3
128.6442 1.3
128.6734 1.3
128.7042 1.3
128.731 1.3
128.7643 1.3
128.7976 1.3
128.8286 1.3
128.8561 1.3
128.8884 1.3
128.9165 1.3
128.948 1.3
128.9799 1.3
129.013 1.3
129.0398 1.3
129.0718 1.3
129.1023 1.3
129.1328 1.3
129.1596 1.3
129.1882 1.3
129.22 1.3
129.2517 1.3
129.2803 1.3
129.3127 1.3
129.346 1.3
129.3791 1.3
129.4063 1.3
129.4385 1.3
129.4666 1.3
129.4956 1.3
129.5246 1.3
129.5546 1.3
129.5829 1.3
129.6145 1.3
129.6463 1.3
129.6793 1.3
129.7101 1.3
129.7408 1.3
129.7721 1.3
129.8054 1.3
129.8355 1.3
129.8653 1.3
129.8946 1.3
129.9237 1.3
129.9539 1.3
129.984 1.3
130.0173 1.3
130.0498 1.3
130.0815 1.3
130.1097 1.3
130.137 1.3
130.1683 1.3
130.1956 1.3
130.2241 1.3
130.2539 1.3
130.2872 1.3
130.3145 1.3
130.3448 1.3
130.3719 1.3
130.4051 1.3
130.4347 1.3
130.4637 1.3
130.4933 1.3
130.5229 1.3
130.5535 1.3
130.5827 1.3
130.6138 1.3
130.6471 1.3
130.6776 1.3
130.7059 1.3
130.7344 1.3
130.7626 1.3
130.7919 1.3
130.8252 1.3
130.8585 1.3
130.8891 1.3
130.9168 1.3
130.9465 1.3
130.9751 1.3
131.0046 1.3
131.0356 1.3
131.0654 1.3
131.0976 1.3
131.1258 1.3
131.1537 1.3
131.1827 1.3
131.21 1.3
131.2433 1.3
131.2766 1.3
131.3048 1.3
131.3317 1.3
131.3601 1.3
131.3904 1.3
131.4238 1.3
131.4557 1.3
131.4862 1.3
131.5145 1.3
131.5435 1.3
131.5757 1.3
131.6043 1.3
131.6324 1.3
131.6638 1.3
131.6961 1.3
131.7292 1.3
131.7565 1.3
131.7857 1.3
131.8163 1.3
131.8449 1.3
131.8732 1.3
131.9021 1.3
131.9322 1.3
131.9655 1.3
131.9944 1.3
132.0277 1.3
132.0597 1.3
132.0885 1.3
132.1159 1.3
132.1479 1.3
132.18 1.3
132.2122 1.3
132.2402 1.3
132.273 1.3
132.3022 1.3
132.3322 1.3
132.3594 1.3
132.3897 1.3
132.4186 1.3
132.452 1.3
132.4853 1.3
132.5161 1.3
132.544 1.3
132.5732 1.3
132.6043 1.3
132.6335 1.3
132.6642 1.3
132.6927 1.3
132.7222 1.3
132.752 1.3
132.782 1.3
132.8114 1.3
132.8435 1.3
132.8717 1.3
132.8989 1.3
132.9277 1.3
132.955 1.3
132.9855 1.3
133.0137 1.3
133.0458 1.3
133.0757 1.3
133.1087 1.3
133.1403 1.3
133.1715 1.3
133.2049 1.3
133.2331 1.3
133.2626 1.3
133.291 1.3
133.3239 1.3
133.3521 1.3
133.3793 1.3
133.4103 1.3
133.4399 1.3
133.4695 1.3
133.4966 1.3
133.5249 1.3
133.5547 1.3
133.5831 1.3
133.6106 1.3
133.6425 1.3
133.6727 1.3
133.7017 1.3
133.735 1.3
133.7653 1.3
133.7926 1.3
133.8221 1.3
133.8494 1.3
133.8782 1.3
133.9056 1.3
133.9338 1.3
133.9671 1.3
133.9955 1.3
134.0246 1.3
134.0535 1.3
134.0823 1.3
134.1145 1.3
134.1478 1.3
134.1796 1.3
134.2064 1.3
134.2385 1.3
134.2685 1.3
134.2982 1.3
134.3285 1.3
134.3568 1.3
134.3858 1.3
134.4192 1.3
134.4476 1.3
134.4797 1.3
134.5098 1.3
134.5396 1.3
134.5679 1.3
134.5966 1.3
134.6273 1.3
134.6597 1.3
134.6885 1.3
134.7218 1.3
134.7515 1.3
134.7811 1.3
134.8121 1.3
134.8406 1.3
134.8685 1.3
134.9018 1.3
134.931 1.3
134.9643 1.3
134.9943 1.3
135.0223 1.3
135.0548 1.3
135.0856 1.3
135.1134 1.3
135.1428 1.3
135.1724 1.3
135.2053 1.3
135.2375 1.3
135.2709 1.3
135.3034 1.3
135.3367 1.3
135.3667 1.3
135.3969 1.3
135.4257 1.3
135.4579 1.3
135.4858 1.3
135.5155 1.3
135.5434 1.3
135.5722 1.3
135.6012 1.3
135.6308 1.3
135.6628 1.3
135.6956 1.3
135.7289 1.3
135.7568 1.3
135.7882 1.3
135.8162 1.3
135.845 1.3
135.8773 1.3
135.9072 1.3
135.9397 1.3
135.973 1.3
136.003 1.3
136.0305 1.3
136.0622 1.3
136.0908 1.3
136.1241 1.3
136.1523 1.3
136.1813 1.3
136.2122 1.3
136.2443 1.3
136.2722 1.3
136.3055 1.3
136.3333 1.3
136.3667 1.3
136.3945 1.3
136.4279 1.3
136.4551 1.3
136.4846 1.3
136.5172 1.3
136.5472 1.3
136.576 1.3
136.6065 1.3
136.6398 1.3
136.6686 1.3
136.6964 1.3
136.7251 1.3
136.7522 1.3
136.7852 1.3
136.8129 1.3
136.8439 1.3
136.8772 1.3
136.9077 1.3
136.9385 1.3
136.9685 1.3
137.0018 1.3
137.0312 1.3
137.0592 1.3
137.0882 1.3
137.1168 1.3
137.1489 1.3
137.1792 1.3
137.2112 1.3
137.2389 1.3
137.2684 1.3
137.2964 1.3
137.3297 1.3
137.3628 1.3
137.3951 1.3
137.4245 1.3
137.4573 1.3
137.4906 1.3
137.5239 1.3
137.5551 1.3
137.5852 1.3
137.6185 1.3
137.649 1.3
137.6766 1.3
137.7092 1.3
137.7367 1.3
137.7655 1.3
137.7948 1.3
137.8255 1.3
137.8537 1.3
137.8837 1.3
137.9153 1.3
137.9445 1.3
137.9779 1.3
138.0095 1.3
138.0415 1.3
138.0721 1.3
138.1 1.3
138.1296 1.3
138.1602 1.3
138.1935 1.3
138.2258 1.3
138.2557 1.3
138.2829 1.3
138.3135 1.3
138.3415 1.3
138.3713 1.3
138.4046 1.3
138.4345 1.3
138.4659 1.3
138.4958 1.3
138.524 1.3
138.5559 1.3
138.5847 1.3
138.6158 1.3
138.6432 1.3
138.675 1.3
138.7023 1.3
138.7356 1.3
138.7628 1.3
138.7953 1.3
138.8234 1.3
138.8519 1.3
138.8792 1.3
138.9097 1.3
138.9397 1.3
138.9687 1.3
138.9957 1.3
139.0247 1.3
139.0581 1.3
139.0908 1.3
139.1181 1.3
139.149 1.3
139.1773 1.3
139.2091 1.3
139.2366 1.3
139.2685 1.3
139.296 1.3
139.3263 1.3
139.3539 1.3
139.3863 1.3
139.4149 1.3
139.4482 1.3
139.4801 1.3
139.5134 1.3
139.5448 1.3
139.5742 1.3
139.6025 1.3
139.6349 1.3
139.6636 1.3
139.6931 1.3
139.7237 1.3
139.757 1.3
139.7846 1.3
139.8179 1.3
139.8513 1.3
139.8807 1.3
139.9081 1.3
139.9365 1.3
139.964 1.3
139.9947 1.3
140.0252 1.3
140.054 1.3
140.0873 1.3
140.1164 1.3
140.1463 1.3
140.1771 1.3
140.2086 1.3
140.2376 1.3
140.2655 1.3
140.2945 1.3
140.3232 1.3
140.3558 1.3
140.3833 1.3
140.4167 1.3
140.4438 1.3
140.4727 1.3
140.5039 1.3
140.5334 1.3
140.5615 1.3
140.5948 1.3
140.6235 1.3
140.655 1.3
140.6856 1.3
140.7142 1.3
140.7475 1.3
140.777 1.3
140.8057 1.3
140.8346 1.3
140.8634 1.3
140.8929 1.3
140.9262 1.3
140.9595 1.3
140.9876 1.3
141.0164 1.3
141.0437 1.3
141.077 1.3
141.1103 1.3
141.1409 1.3
141.1695 1.3
141.2023 1.3
141.2296 1.3
141.2589 1.3
141.2915 1.3
141.321 1.3
141.3544 1.3
141.3869 1.3
141.4198 1.3
141.4532 1.3
141.4829 1.3
141.5154 1.3
141.5423 1.3
141.5723 1.3
141.6057 1.3
141.6377 1.3
141.671 1.3
141.7018 1.3
141.7329 1.3
141.7632 1.3
141.7942 1.3
141.8262 1.3
141.8546 1.3
141.888 1.3
141.9163 1.3
141.9447 1.3
141.9725 1.3
142.002 1.3
142.0349 1.3
142.0682 1.3
142.0975 1.3
142.1303 1.3
142.1586 1.3
142.1894 1.3
142.2189 1.3
142.2502 1.3
142.2818 1.3
142.3152 1.3
142.3482 1.3
142.3815 1.3
142.4149 1.3
142.4438 1.3
142.4714 1.3
142.5006 1.3
142.5288 1.3
142.5576 1.3
142.5854 1.3
142.6188 1.3
142.6498 1.3
142.6807 1.3
142.7095 1.3
142.7428 1.3
142.77 1.3
142.8033 1.3
142.8306 1.3
142.864 1.3
142.8938 1.3
142.9264 1.3
142.9544 1.3
142.9877 1.3
143.0154 1.3
143.0445 1.3
143.076 1.3
143.1046 1.3
143.135 1.3
143.1639 1.3
143.1969 1.3
143.2256 1.3
143.253 1.3
143.2863 1.3
143.3143 1.3
143.3477 1.3
143.3783 1.3
143.4089 1.3
143.4417 1.3
143.4714 1.3
143.4996 1.3
143.5301 1.3
143.5594 1.3
143.5877 1.3
143.6155 1.3
143.6458 1.3
143.6791 1.3
143.7091 1.3
143.737 1.3
143.7703 1.3
143.8024 1.3
143.8307 1.3
143.8586 1.3
143.8919 1.3
143.9213 1.3
143.9547 1.3
143.9834 1.3
144.0135 1.3
144.0444 1.3
144.0777 1.3
144.1059 1.3
144.1348 1.3
144.1632 1.3
144.1963 1.3
144.2256 1.3
144.2564 1.3
144.2897 1.3
144.3199 1.3
144.3479 1.3
144.3775 1.3
144.4064 1.3
144.4389 1.3
144.4666 1.3
144.4951 1.3
144.5225 1.3
144.5553 1.3
144.5828 1.3
144.6161 1.3
144.6445 1.3
144.6732 1.3
144.7036 1.3
144.7326 1.3
144.7615 1.3
144.7928 1.3
144.821 1.3
144.8517 1.3
144.885 1.3
144.916 1.3
144.9444 1.3
144.9743 1.3
145.003 1.3
145.034 1.3
145.064 1.3
145.0949 1.3
145.1232 1.3
145.1527 1.3
145.1831 1.3
145.2164 1.3
145.2463 1.3
145.2796 1.3
145.3087 1.3
145.3377 1.3
145.3652 1.3
145.3986 1.3
145.4262 1.3
145.457 1.3
145.486 1.7
145.5169 1.7
145.5502 1.7
145.5798 1.7
145.6103 1.7
145.6385 1.7
145.6713 1.7
145.7004 1.7
145.7281 1.7
145.7615 1.7
145.7889 1.7
145.8195 1.7
145.8466 1.7
145.8799 1.7
145.9116 1.7
145.9417 1.7
145.9688 1.7
146.0009 1.7
146.0342 1.7
146.0625 1.7
146.0938 1.7
146.1271 1.7
146.158 1.7
146.1902 1.7
146.2181 1.7
146.2514 2.15
146.2806 2.6
146.3115 2.6
146.3449 4.15
146.3746 5.2
146.4031 5.2
146.4324 5.45
146.4608 5.45
146.4907 5.45
146.5217 5.45
146.555 5.45
146.5827 5.45
146.6143 5.45
146.6426 5.45
146.6756 5.45
146.7089 5.45
146.7397 5.45
146.7699 5.2
146.799 5.2
146.8298 5.2
146.8592 5.2
146.8867 5
146.9167 5
146.9477 5
146.9788 5
147.008 5
147.0395 5
147.0709 5
147.1039 5
147.1329 5
147.1651 5
147.1935 5
147.2243 5
147.2577 5
147.2869 4.8
147.3148 4.55
147.3434 4.55
147.3705 4.35
147.4039 4.35
147.4314 4.35
147.4605 4.35
147.4917 4.35
147.5244 4.35
147.5578 4.35
147.5907 4.35
147.6219 4.35
147.6538 4.35
147.6871 4.35
147.7163 4.35
147.7479 4.35
147.7797 4.35
147.813 4.55
147.8463 4.55
147.8797 4.8
147.9088 4.8
147.9366 4.8
147.9699 5
147.9985 5
148.0293 5.2
148.0615 5.45
148.0913 5.45
148.1244 5.85
148.1577 6.95
148.1911 6.95
148.2244 8.3
148.2531 8.95
148.2841 8.95
148.3147 9.15
148.3457 8.95
148.3748 8.95
148.4051 8.95
148.4328 8.95
148.4621 8.95
148.4895 8.95
148.5228 8.95
148.5518 8.95
148.5823 8.95
148.6113 8.95
148.641 8.95
148.6688 8.95
148.701 8.95
148.7295 8.95
148.7598 8.95
148.7886 8.95
148.8219 8.95
148.8514 8.95
148.8821 8.95
148.9097 9.35
148.939 10.7
148.9701 10.7
148.9994 11.35
149.0284 11.35
149.058 12
149.0913 12
149.1224 12
149.1513 12
149.1846 12
149.2178 12
149.2479 12
149.2757 12
149.3061 12
149.3394 12
149.3689 12
149.3984 12
149.4317 12.2
149.4599 12.2
149.4932 12.45
149.5232 12.45
149.5524 12.45
149.5801 12.45
149.6096 12.45
149.6417 12.45
149.6741 12.45
149.7074 12.45
149.7408 12.65
149.7692 12.65
149.7999 13.1
149.8282 13.1
149.8575 13.1
149.8849 13.1
149.9151 13.1
149.9444 13.1
149.974 13.1
150.0058 13.3
150.0389 13.3
150.0716 13.3
150.1049 13.3
150.1366 13.3
150.1699 13.3
150.1975 13.3
150.2264 13.3
150.2598 13.3
150.289 13.3
150.3224 13.3
150.354 13.3
150.3839 13.3
150.4143 13.3
150.4464 13.3
150.4781 13.3
150.5102 13.3
150.5403 13.3
150.5686 13.3
150.5997 13.3
150.6308 13.3
150.6619 13.3
150.6907 13.3
150.7221 13.3
150.7519 13.3
150.7843 13.3
150.8139 13.3
150.8446 13.3
150.8732 13.3
150.905 13.3
150.9376 13.3
150.9681 13.3
150.9991 13.3
151.0296 13.3
151.0594 13.3
151.0883 13.3
151.1164 13.3
151.1487 13.3
151.1768 13.3
151.2068 13.3
151.2401 13.3
151.2706 13.3
151.3033 13.3
151.3352 13.3
151.363 13.3
151.3929 13.3
151.4263 13.3
151.4596 13.3
151.4894 13.3
151.5194 13.3
151.552 13.3
151.5808 13.3
151.6099 13.3
151.6391 13.3
151.6671 13.3
151.7005 13.3
151.7294 13.3
151.7606 13.3
151.7924 13.3
151.8258 13.3
151.8546 13.3
151.8869 13.3
151.9158 13.3
151.9471 13.3
151.9798 13.3
152.0119 13.3
152.0429 13.3
152.0723 13.3
152.1002 13.3
152.1335 13.3
152.1633 13.3
152.1943 13.3
152.2229 13.3
152.255 13.3
152.2831 13.3
152.3126 13.3
152.3459 13.3
152.3792 13.3
152.4066 13.3
152.4379 13.3
152.4662 13.3
152.4945 13.3
152.5267 13.3
152.5561 13.3
152.5834 13.3
152.6118 13.3
152.64 13.3
152.6734 13.3
152.7016 13.3
152.7333 13.3
152.7628 13.3
152.7962 13.3
152.8295 13.3
152.8597 13.3
152.8879 13.3
152.9195 13.3
152.95 13.3
152.9791 13.3
153.0124 13.3
153.0411 13.3
153.0693 13.3
153.0992 13.3
153.1286 13.3
153.1597 13.3
153.1917 13.3
153.2213 13.3
153.2544 13.3
153.285 13.3
153.3134 13.3
153.3468 13.3
153.3754 13.3
153.4048 13.3
153.4332 13.3
153.4625 13.3
153.4902 13.3
153.5236 13.3
153.5522 13.3
153.5855 13.3
153.6139 13.3
153.6443 13.3
153.6716 13.3
153.705 13.3
153.7318 13.3
153.7649 13.3
153.7939 13.3
153.8221 13.3
153.8504 13.3
153.8837 13.3
153.9116 13.3
153.9443 13.3
153.9763 13.3
154.0083 13.3
154.0381 13.3
154.0714 13.3
154.0986 13.3
154.1276 13.3
154.1558 13.3
154.1854 13.3
154.213 13.3
154.246 13.3
154.2738 13.3
154.305 13.3
154.3383 13.3
154.3716 13.3
154.405 12.85
154.4353 12.45
154.4672 12.45
154.4963 11.35
154.529 10.45
154.5586 10.45
154.5872 9.35
154.6205 9.35
154.6484 8.3
154.6817 7.4
154.7083 7.4
154.737 7.2
154.7682 7.2
154.7996 7.2
154.8284 7.2
154.8617 7.2
154.8883 7.2
154.9216 7.6
154.952 7.6
154.9822 8.5
155.0121 8.5
155.0419 9.15
155.0702 10.25
155.0995 10.25
155.1315 10.9
155.1637 10.9
155.197 11.75
155.2292 12.45
155.2596 12.45
155.2896 12.65
155.3181 12.85
155.349 12.85
155.3783 13.1
155.4107 13.1
155.4421 13.1
155.4732 13.1
155.5021 13.1
155.5345 13.1
155.5647 13.1
155.5943 13.1
155.6241 13.1
155.6555 13.1
155.6839 13.3
155.7144 13.3
155.7478 13.75
155.7786 14.4
155.8063 14.4
155.8384 15.05
155.8702 15.7
155.8996 15.7
155.9297 16.15
155.963 16.15
155.9964 16.6
156.0263 17.25
156.0555 17.25
156.086 17.65
156.1136 17.65
156.1456 17.9
156.1735 17.9
156.2065 17.9
156.2355 17.9
156.2653 17.9
156.2986 17.9
156.3283 17.9
156.3559 17.9
156.386 17.65
156.4193 17.45
156.4476 17.45
156.4776 17.25
156.5109 17.25
156.5401 17
156.5713 16.6
156.6036 16.6
156.6345 16.15
156.6618 16.15
156.6944 15.7
156.723 15.25
156.753 15.25
156.7818 15.05
156.8119 15.05
156.8421 14.85
156.8754 14.6
156.9087 14.6
156.9375 13.75
156.9669 13.1
156.9958 13.1
157.0233 12.45
157.055 12.45
157.0834 11.75
157.1153 11.35
157.1486 11.35
157.1783 11.1
157.2064 11.1
157.2367 10.7
157.2662 10.45
157.2951 10.45
157.3222 10.25
157.3555 10.25
157.3888 10
157.4222 9.8
157.4552 9.8
157.4845 9.6
157.5179 9.35
157.549 9.35
157.5813 9.15
157.6113 8.95
157.6429 8.95
157.6735 8.7
157.7025 8.7
157.7312 8.5
157.76 8.3
157.7933 8.3
157.8203 7.85
157.8489 7.85
157.8771 7.4
157.9104 6.75
157.9385 6.75
157.9718 6.1
157.9998 6.1
158.0292 5.45
158.0569 5
158.0868 5
158.1153 4.8
158.1486 4.8
158.1794 4.35
158.2115 4.35
158.2419 4.35
158.2722 4.35
158.3055 4.35
158.3347 4.35
158.3627 3.9
158.3934 3.9
158.4206 3.45
158.454 2.8
158.4813 2.8
158.5114 2.15
158.5406 2.15
158.5739 1.5
158.6031 0.85
158.6314 0.85
158.6627 0.4
158.6913 0
158.7246 0
158.7579 -0.2
158.7864 -0.2
158.8161 -0.2
158.8494 -0.2
158.879 -0.2
158.9094 -0.4
158.9398 -0.65
158.9701 -0.65
159.0008 -1.3
159.0286 -1.3
159.062 -1.95
159.0934 -2.15
159.1234 -2.15
159.1563 -2.4
159.186 -2.4
159.2162 -2.4
159.248 -2.4
159.2809 -2.4
159.3142 -2.4
159.3434 -2.4
159.3732 -2.4
159.4005 -2.4
159.4327 -2.4
159.466 -2.4
159.4993 -2.4
159.5294 -2.4
159.5588 -2.4
159.5914 -2.4
159.6207 -2.4
159.6499 -2.6
159.6798 -2.8
159.7072 -2.8
159.7395 -3.05
159.7681 -3.05
159.8015 -3.45
159.8307 -4.35
159.864 -4.35
159.8918 -4.8
159.9226 -5.45
159.9559 -5.45
159.9852 -5.65
160.0179 -5.65
160.0513 -5.65
160.0814 -5.65
160.1148 -5.65
160.1481 -5.65
160.1814 -5.65
160.2099 -5.65
160.2427 -5.65
160.2708 -5.65
160.3003 -5.65
160.3279 -5.65
160.3579 -5.65
160.3908 -5.65
160.4195 -5.65
160.4528 -5.65
160.4813 -5.65
160.5146 -5.65
160.546 -5.65
160.5772 -5.65
160.6089 -5.65
160.6373 -5.65
160.6706 -5.65
160.6988 -5.65
160.7321 -5.65
160.7655 -5.65
160.7967 -5.65
160.8253 -5.45
160.8566 -5.2
160.8885 -5.2
160.9181 -5
160.9464 -5
160.9797 -4.35
161.0116 -3.45
161.0412 -3.45
161.0714 -3.05
161.1025 -2.8
161.1358 -2.8
161.1654 -2.4
161.1988 -2.4
161.2273 -2.4
161.2565 -2.15
161.2892 -2.15
161.3184 -1.95
161.3488 -1.3
161.379 -1.3
161.4124 -0.85
161.4417 0.4
161.4702 0.4
161.498 1.7
161.5303 1.7
161.5584 2.4
161.5876 2.4
161.6168 3.7
161.6487 4.8
161.6783 4.8
161.7102 5.45
161.7426 6.1
161.7745 6.1
161.8037 6.75
161.837 6.75
161.8678 7.2
161.8981 7.4
161.9252 7.4
161.9586 7.4
161.9871 7.6
162.0165 7.6
162.0465 7.6
162.0794 7.6
162.107 7.85
162.1376 8.05
162.1684 8.05
162.1978 8.05
162.2269 8.05
162.256 8.05
162.2867 8.05
162.3197 8.05
162.3512 8.05
162.3845 8.05
162.4137 8.05
162.4458 7.85
162.4768 7.85
162.5063 7.2
162.5397 6.3
162.5705 6.3
162.6001 5.2
162.6313 5.2
162.663 4.35
162.6936 3.45
162.7226 3.45
162.756 2.8
162.7849 2.4
162.8179 2.4
162.8513 1.95
162.88 1.7
162.9114 1.7
162.9415 1.3
162.9729 1.3
163.0037 0.4
163.031 -0.4
163.062 -0.4
163.0953 -1.3
163.1269 -2.4
163.1541 -2.4
163.1834 -3.25
163.211 -3.25
163.2423 -3.9
163.272 -3.9
163.3045 -4.55
163.3331 -5.2
163.3657 -5.2
163.3975 -5.85
163.4287 -6.3
163.4583 -6.3
163.4916 -6.55
163.519 -6.55
163.5475 -6.55
163.5808 -6.55
163.6094 -6.55
163.6427 -6.75
163.6736 -6.75
163.702 -6.75
163.7316 -6.95
163.7602 -6.95
163.7919 -6.95
163.8194 -6.95
163.8482 -6.95
163.8787 -6.95
163.9077 -6.95
163.9365 -6.75
163.9699 -5.85
163.9983 -5.85
164.0275 -4.8
164.0569 -4.8
164.0873 -3.05
164.1185 -1.7
164.1487 -1.7
164.182 -0.2
164.2118 -0.2
164.2447 1.7
164.2754 3.7
164.3081 3.7
164.3415 5.2
164.3705 6.55
164.4038 6.55
164.433 8.05
164.4652 9.35
164.4962 9.35
164.5264 10
164.5593 10
164.5911 11.1
164.6189 12
164.6514 12
164.6795 13.3
164.7123 13.3
164.7417 14.6
164.7707 16.15
164.802 16.15
164.8316 17.9
164.8635 17.9
164.8918 20.05
164.9249 21.8
164.9582 21.8
164.9892 24.65
165.0195 26.4
165.0496 26.4
165.0829 29.9
165.1108 32.75
165.1441 32.75
165.1716 34.95
165.2049 37.75
165.2328 37.75
165.2628 40.4
165.2952 40.4
165.327 43.65
165.3598 46.5
165.3897 46.5
165.4213 50.2
165.4543 53.95
165.4855 53.95
165.5137 56.75
165.5425 56.75
165.573 60.05
165.6026 63.1
165.6359 63.1
165.6682 65.3
165.7007 68.15
165.7312 68.15
165.7611 70.3
165.7935 70.3
165.8233 72.5
165.8523 74.9
165.8825 74.9
165.9115 76.45
165.9448 76.45
165.976 77.5
166.0049 78.2
166.0339 78.2
166.0672 78.4
166.0999 78.6
166.131 78.6
166.1635 78.6
166.1968 78.6
166.2273 78.6
166.2572 78.6
166.2875 78.6
166.3209 78.6
166.3495 78.6
166.3782 78.6
166.4095 78.6
166.4383 78.6
166.4676 78.6
166.4969 78.6
166.5282 78.6
166.5598 78.2
166.5925 77.5
166.6256 77.5
166.6563 76.85
166.6897 76.85
166.7177 76
166.751 75.8
166.7799 75.8
166.8122 75.1
166.8396 74.05
166.8703 74.05
166.9009 72.5
166.93 72.5
166.9595 70.3
166.9928 67.05
167.0261 67.05
167.0546 64.4
167.082 64.4
167.1132 60.7
167.1465 58.1
167.1778 58.1
167.2072 55
167.2384 51.55
167.2698 51.55
167.3031 49.55
167.3321 44.55
167.3611 44.55
167.3895 40.4
167.4192 40.4
167.4526 37.35
167.4853 33.85
167.5144 33.85
167.5439 31
167.5736 31
167.6047 29.05
167.6328 26.65
167.6643 26.65
167.6931 24.45
167.7264 24.45
167.7556 22.5
167.7852 20.3
167.8165 20.3
167.8499 18.3
167.882 15.9
167.9138 15.9
167.9472 13.95
167.9765 12
168.0074 12
168.0407 10
168.071 10
168.1034 8.7
168.1349 7.6
168.166 7.6
168.1946 7.4
168.2279 7.6
168.2564 7.6
168.2874 8.3
168.3154 8.3
168.3461 8.95
168.3744 9.35
168.4039 9.35
168.4352 9.35
168.4657 9.35
168.4956 9.35
168.5259 9.35
168.557 9.35
168.5901 9.35
168.6191 9.35
168.6488 9.35
168.6821 9.35
168.711 9.35
168.741 9.35
168.7744 9.35
168.8033 9.35
168.8337 9.35
168.8632 9.35
168.8935 9.6
168.9268 10
168.9602 10
168.9874 10.9
169.0158 10.9
169.0437 11.75
169.0745 12.45
169.104 12.45
169.1326 12.65
169.1622 12.65
169.1955 12.85
169.2261 12.85
169.2595 12.85
169.2886 12.85
169.3202 12.85
169.3501 12.85
169.3834 12.85
169.4117 12.85
169.4437 12.85
169.4722 13.1
169.5007 13.1
169.5289 13.5
169.5622 14.15
169.5899 14.15
169.6195 14.85
169.6508 14.85
169.6796 15.5
169.708 15.9
169.7396 15.9
169.7723 16.35
169.8056 16.8
169.8354 16.8
169.8687 17
169.902 17.25
169.9317 17.25
169.9602 17.65
169.9891 17.65
170.0179 17.9
170.0471 18.1
170.0755 18.1
170.1089 18.3
170.1375 18.3
170.1706 18.55
170.1994 18.75
170.2321 18.75
170.2614 19
170.2947 19.2
170.3252 19.2
170.3536 19.4
170.381 19.4
170.41 19.4
170.4433 19.4
170.4757 19.4
170.5066 19.4
170.5363 19.4
170.567 19.2
170.596 18.75
170.6271 18.75
170.6554 17.9
170.6851 17.9
170.7184 16.8
170.7455 15.05
170.7756 15.05
170.8071 13.95
170.8404 12.45
170.8693 12.45
170.9026 11.35
170.9305 11.35
170.9596 9.8
170.9868 9.8
171.0154 8.95
171.0487 7.6
171.0775 7.6
171.1051 6.75
171.1385 5.85
171.1672 5.85
171.2002 3.45
171.2284 3.45
171.2617 1.95
171.2909 -0.4
171.3243 -0.4
171.3576 -2.8
171.3909 -4.8
171.4193 -4.8
171.4512 -7.4
171.4832 -9.8
171.5138 -9.8
171.5447 -11.55
171.5744 -13.3
171.6077 -13.3
171.6397 -14.4
171.6711 -15.7
171.7008 -15.7
171.7303 -16.8
171.7617 -16.8
171.7907 -18.1
171.8241 -19.65
171.8554 -19.65
171.8887 -21.15
171.917 -22.25
171.9504 -22.25
171.9794 -23.8
172.0094 -23.8
172.0394 -24.9
172.0727 -26.2
172.1039 -26.2
172.1373 -27.3
172.1653 -28.35
172.1956 -28.35
172.2255 -29.05
172.2589 -29.7
172.2876 -29.7
172.3209 -29.9
172.3521 -29.9
172.3855 -29.9
172.4188 -29.9
172.4483 -29.9
172.4779 -29.9
172.5101 -29.9
172.5434 -29.9
172.5734 -29.9
172.6058 -29.9
172.6349 -29.9
172.6683 -29.9
172.7016 -29.9
172.7299 -29.9
172.7603 -29.9
172.7936 -29.9
172.8269 -29.9
172.8563 -29.9
172.885 -29.9
172.9182 -29.45
172.9475 -28.8
172.9758 -28.8
173.0072 -28.15
173.0372 -27.05
173.0673 -27.05
173.0971 -26.4
173.129 -26.4
173.1623 -25.75
173.1933 -25.3
173.2266 -25.3
173.2562 -24.9
173.2875 -24.45
173.3172 -24.45
173.3451 -24.2
173.3784 -24.2
173.4117 -24.2
173.4451 -24
173.4746 -24
173.5061 -24
173.5355 -24
173.5672 -24
173.5961 -24
173.6286 -24
173.6569 -24
173.688 -24
173.718 -24
173.7472 -24
173.7805 -24
173.8099 -23.8
173.8424 -23.35
173.8719 -23.35
173.8998 -22.7
173.9332 -21.6
173.9632 -21.6
173.9965 -20.95
174.0261 -20.5
174.057 -20.5
174.0864 -20.3
174.1162 -20.3
174.1493 -20.3
174.1786 -20.3
174.2071 -20.3
174.2393 -20.3
174.2708 -20.3
174.2999 -20.3
174.3274 -20.3
174.3568 -20.3
174.3885 -20.3
174.4218 -20.3
174.4507 -20.3
174.4798 -20.3
174.5115 -20.3
174.5419 -20.3
174.5721 -20.3
174.6054 -20.3
174.6343 -20.3
174.6676 -20.3
174.6981 -20.3
174.7281 -20.3
174.7585 -20.3
174.7911 -20.3
174.8244 -20.3
174.8577 -20.3
174.8864 -20.3
174.9185 -19.85
174.9474 -19.85
174.9793 -19
175.01 -19
175.039 -18.3
175.0711 -17.45
175.1008 -17.45
175.1285 -16.6
175.1608 -16.6
175.1908 -16.15
175.2237 -15.7
175.2537 -15.7
175.2849 -15.7
175.3134 -15.7
175.3439 -15.5
175.3773 -15.5
175.4093 -15.5
175.4372 -15.5
175.4672 -15.25
175.4986 -15.25
175.5281 -15.25
175.5602 -15.25
175.5935 -14.85
175.6251 -14.6
175.6584 -14.6
175.6873 -14.4
175.7174 -14.4
175.747 -14.4
175.7775 -14.4
175.8055 -14.4
175.8348 -14.4
175.8633 -14.4
175.8935 -14.4
175.9219 -14.4
175.9525 -14.4
175.9859 -14.4
176.0189 -14.6
176.0518 -14.6
176.0817 -14.6
176.1135 -14.85
176.1468 -14.85
176.1773 -15.25
176.2107 -16.15
176.2422 -16.15
176.2744 -17.25
176.3031 -18.3
176.3364 -18.3
176.3665 -19.65
176.3998 -21.4
176.4282 -21.4
176.4589 -22.5
176.4865 -22.5
176.5172 -23.8
176.549 -25.1
176.5819 -25.1
176.6143 -25.75
176.6461 -25.75
176.6778 -26.65
176.7092 -27.3
176.7425 -27.7
176.7742 -27.7
176.805 -28.35
176.8372 -28.35
176.8665 -28.8
176.8999 -29.25
176.9272 -29.25
176.9604 -29.7
176.9938 -30.1
177.0235 -30.1
177.0541 -30.55
177.0842 -30.55
177.1121 -31
177.1428 -31.45
177.1718 -31.45
177.2028 -31.65
177.2362 -31.85
177.2695 -31.85
177.2982 -31.85
177.3275 -31.85
177.3552 -32.1
177.3841 -32.1
177.4129 -32.1
177.4425 -32.5
177.4712 -32.5
177.5014 -32.75
177.5298 -32.75
177.5599 -32.95
177.5887 -32.95
177.6194 -32.95
177.647 -32.95
177.6761 -32.95
177.7038 -32.95
177.7344 -32.95
177.7651 -32.95
177.796 -32.95
177.8268 -32.95
177.8568 -32.95
177.8885 -32.95
177.9218 -32.95
177.9502 -32.95
177.9814 -32.95
178.0092 -32.95
178.039 -32.95
178.071 -32.95
178.1004 -32.95
178.1287 -32.95
178.162 -32.95
178.1954 -32.95
178.2287 -32.95
178.2616 -32.95
178.2949 -32.95
178.3267 -32.95
178.3583 -32.95
178.3895 -32.95
178.4203 -32.95
178.4484 -33.2
178.4773 -33.4
178.5106 -33.4
178.5394 -33.85
178.568 -33.85
178.5985 -34.05
178.6275 -34.5
178.6608 -34.5
178.6914 -34.7
178.7229 -35.15
178.7516 -35.15
178.7839 -35.6
178.8147 -35.6
178.8462 -36.9
178.8796 -38.4
178.9099 -38.4
178.9379 -39.95
178.9683 -41.25
178.9965 -41.25
179.0284 -43
179.0563 -43
179.0856 -44.55
179.1157 -46.05
179.1465 -46.05
179.1798 -47.8
179.2111 -47.8
179.2394 -49.55
179.2706 -51.1
179.2992 -51.1
179.3298 -53.3
179.3582 -53.3
179.388 -55
179.4178 -57
179.4509 -57
179.4814 -58.3
179.5137 -58.3
179.5426 -60.5
179.5759 -62
179.6052 -62
179.6351 -63.3
179.6648 -64.4
179.6964 -64.4
179.7247 -65.3
179.7544 -65.3
179.7878 -65.5
179.8185 -65.75
179.8519 -65.75
179.8813 -65.75
179.909 -65.75
179.9404 -65.95
179.9723 -65.95
180.0037 -65.95
180.037 -65.95
180.0703 -65.95
180.1003 -65.95
180.1332 -65.95
180.1666 -65.95
180.1956 -65.95
180.2243 -65.95
180.254 -65.95
180.2824 -65.95
180.3114 -65.95
180.3401 -65.95
180.3694 -65.95
180.4017 -65.95
180.435 -65.95
180.4649 -65.95
180.4958 -65.95
180.528 -65.95
180.5579 -65.75
180.5859 -65.75
180.6162 -65.3
180.6483 -65.3
180.6781 -64.2
180.7075 -63.1
180.7408 -63.1
180.7688 -62
180.8021 -62
180.8324 -60.5
180.863 -58.75
180.8937 -58.75
180.9233 -57
180.9519 -57
180.9849 -54.8
181.018 -53.05
181.0513 -49.8
181.0842 -49.8
181.115 -46.7
181.1483 -43.25
181.1817 -43.25
181.2112 -40.15
181.2446 -36.45
181.2735 -36.45
181.303 -33.2
181.3354 -30.55
181.3687 -30.55
181.3999 -27.05
181.4332 -23.8
181.4665 -23.8
181.4969 -20.5
181.525 -20.5
181.5584 -14.85
181.5873 -10.7
181.617 -10.7
181.6454 -5.65
181.6749 -5.65
181.7037 -0.65
181.7331 3.9
181.7661 3.9
181.7949 9.35
181.8242 9.35
181.8537 12.85
181.8816 16.15
181.9139 16.15
181.9431 18.55
181.9759 18.55
182.0084 20.3
182.0395 21.8
182.0715 21.8
182.1037 23.35
182.1371 24.65
182.1668 24.65
182.1951 26.4
182.2284 28.35
182.2562 28.35
182.2863 30.1
182.3153 30.1
182.3446 32.3
182.3755 34.05
182.4047 34.05
182.4327 36.9
182.4631 36.9
182.4916 39.5
182.525 41.5
182.5547 41.5
182.5842 42.15
182.6138 42.15
182.643 42.15
182.6704 42.15
182.7003 41.05
182.7312 38.85
182.7621 38.85
182.7894 37.1
182.8228 32.75
182.8528 32.75
182.8844 29.7
182.9129 29.7
182.943 25.55
182.9717 25.55
183.0016 20.95
183.0349 17
183.064 17
183.0974 11.75
183.1299 5.85
183.1595 5.85
183.1904 1.5
183.2229 -2.15
183.2563 -2.15
183.2863 -9.8
183.3169 -13.5
183.3459 -13.5
183.3759 -17.45
183.4049 -17.45
183.4339 -21.6
183.4616 -21.6
183.4913 -25.95
183.5222 -28.35
183.5556 -28.35
183.5835 -33.6
183.6132 -37.75
183.6413 -37.75
183.6737 -41.25
183.7029 -41.25
183.7357 -45.2
183.7681 -49.15
183.7974 -49.15
183.8304 -52.2
183.8631 -56.1
183.8914 -56.1
183.9234 -60.05
183.9562 -60.05
183.9856 -62.9
184.0162 -66.4
184.0456 -66.4
184.0755 -68.35
184.1054 -68.35
184.1388 -72.5
184.1685 -76
184.2003 -76
184.2327 -78.4
184.2617 -80.6
184.2951 -80.6
184.323 -81.45
184.3528 -81.45
184.3807 -81.65
184.4122 -81.65
184.4397 -81.65
184.4713 -81.65
184.4991 -81.65
184.5291 -81.65
184.5614 -81.65
184.5947 -81.65
184.6225 -81.65
184.6519 -81.65
184.6801 -81.65
184.7086 -81.65
184.7404 -81.65
184.7738 -81.65
184.8047 -81.65
184.8354 -81.25
184.8684 -80.15
184.8994 -80.15
184.9328 -77.1
184.9628 -69.9
184.9949 -69.9
185.0237 -64.4
185.0538 -57.65
185.0839 -57.65
185.1117 -51.95
185.1444 -51.95
185.1736 -44.3
185.2032 -36.65
185.2332 -36.65
185.2666 -28.6
185.2953 -28.6
185.327 -21.8
185.3584 -13.5
185.3877 -13.5
185.4174 -5.45
185.4507 1.95
185.4804 1.95
185.5117 6.3
185.5447 6.3
185.5741 13.1
185.6074 17.45
185.636 17.45
185.6642 22.05
185.6976 25.3
185.7254 25.3
185.755 29.45
185.7847 29.45
185.8181 32.75
185.8458 36.65
185.8788 36.65
185.9081 39.95
185.9415 41.9
185.9732 41.9
186.003 44.3
186.0357 46.3
186.0691 46.3
186.1024 47.15
186.1346 47.8
186.1622 47.8
186.193 48.25
186.2234 48.25
186.2539 48.25
186.2817 48.25
186.315 48.25
186.3438 48.7
186.3768 48.7
186.4101 49.35
186.4435 49.55
186.4755 49.55
186.5083 50.45
186.5371 51.3
186.5662 51.3
186.5985 51.95
186.6279 51.95
186.657 51.95
186.6894 51.95
186.7201 51.95
186.7531 51.75
186.7821 51.55
186.8113 51.55
186.8439 51.55
186.8725 51.55
186.9001 51.55
186.932 51.55
186.96 51.55
186.9933 51.55
187.0246 51.55
187.0579 51.55
187.0912 51.55
187.1245 51.1
187.1563 51.1
187.1848 50.45
187.2146 50.45
187.2462 50
187.2796 49.15
187.3088 49.15
187.3412 48.05
187.3704 48.05
187.3988 46.7
187.4302 45.2
187.4613 45.2
187.4917 43.9
187.525 42.55
187.5541 42.55
187.5874 41.7
187.6172 41.7
187.6497 41.5
187.6807 41.5
187.7079 41.5
187.7402 41.7
187.7723 41.7
187.8006 41.7
187.829 41.9
187.8589 41.9
187.888 42.15
187.9165 42.15
187.9444 42.15
187.9737 42.15
188.0052 42.15
188.0374 42.15
188.0698 42.15
188.1004 42.15
188.1304 41.9
188.1596 41.9
188.188 41.5
188.2172 41.5
188.2467 40.8
188.28 40.4
188.3081 40.4
188.3375 39.95
188.3685 39.95
188.4018 39.95
188.4303 39.95
188.4604 39.95
188.4878 40.15
188.5211 40.15
188.549 40.15
188.5779 40.15
188.6064 40.15
188.6376 40.15
188.6665 40.15
188.6986 40.15
188.7288 40.15
188.7594 40.15
188.7899 40.4
188.8232 40.6
188.851 40.6
188.8802 40.6
188.908 40.6
188.938 40.6
188.9687 40.6
189.0007 40.6
189.0341 40.6
189.0644 40.6
189.0942 40.6
189.124 40.6
189.1544 40.6
189.1855 40.6
189.2149 40.6
189.2482 40.6
189.2815 40.6
189.3122 40.6
189.3409 40.6
189.3702 40.6
189.4021 40.6
189.4312 40.6
189.461 40.6
189.4921 40.6
189.5243 40.6
189.5523 40.6
189.581 40.6
189.6143 40.6
189.6477 40.6
189.6788 40.15
189.7086 39.75
189.7393 39.75
189.7686 39.1
189.8008 39.1
189.8342 38.4
189.8637 37.75
189.8938 37.75
189.9229 36.9
189.9529 36.9
189.9819 36
190.0096 35.15
190.043 35.15
190.0715 34.7
190.1011 34.7
190.1298 34.05
190.1591 34.05
190.1894 34.05
190.2196 34.05
190.2496 34.05
190.2796 34.05
190.3129 34.05
190.344 34.05
190.373 33.85
190.4036 33.85
190.4354 33.6
190.4653 33.4
190.497 33.4
190.5256 33.2
190.5589 33.2
190.5923 33.2
190.622 32.95
190.6526 32.5
190.6827 32.5
190.7151 32.1
190.744 32.1
190.7761 31.65
190.8075 31.2
190.8362 31.2
190.8638 30.8
190.8954 30.8
190.9247 30.35
190.9551 29.9
190.9884 29.9
191.0183 29.25
191.0509 29.25
191.0843 28.6
191.1134 28.15
191.1416 28.15
191.1728 27.7
191.2061 27.5
191.2368 27.5
191.2701 27.5
191.2988 27.5
191.3316 27.5
191.3603 27.5
191.3894 27.5
191.4179 27.5
191.4467 27.5
191.4749 27.5
191.5082 27.3
191.5367 27.3
191.5654 26.65
191.5934 26.65
191.6268 25.95
191.6565 24.9
191.6877 24.9
191.717 23.8
191.7479 22.9
191.7786 22.9
191.812 22.05
191.8421 22.05
191.8709 21.4
191.8985 21.4
191.9303 21.15
191.9618 21.15
191.9951 21.15
192.0283 21.15
192.0616 21.4
192.0908 21.4
192.1196 21.8
192.15 21.8
192.1825 21.8
192.2099 22.05
192.2395 22.05
192.2728 22.05
192.3035 22.05
192.3345 22.05
192.3658 22.05
192.3991 21.8
192.4281 21.8
192.4561 21.4
192.4853 21.4
192.5135 20.95
192.5469 20.3
192.575 20.3
192.6084 19.85
192.6405 19.4
192.673 19.4
192.7003 18.55
192.7326 18.55
192.7659 17.65
192.7991 17
192.8266 17
192.8565 16.15
192.8899 15.25
192.9232 15.25
192.9534 14.4
192.9868 12.85
193.015 12.85
193.0441 12.2
193.0725 12.2
193.1045 12.2
193.1353 12.2
193.1682 12.2
193.2016 11.75
193.2347 10
193.2659 10
193.2967 9.15
193.3301 9.15
193.363 9.15
193.3936 9.15
193.4269 9.15
193.4592 9.15
193.4884 9.15
193.5199 9.15
193.5483 9.15
193.5769 9.35
193.61 9.35
193.6384 9.35
193.671 9.35
193.7019 9.35
193.7352 9.15
193.7627 9.15
193.796 8.7
193.826 7.85
193.8575 7.85
193.8895 6.75
193.9228 5.45
193.9517 5.45
193.985 3.7
194.0132 3.7
194.043 2.15
194.0735 0.65
194.1048 0.65
194.1351 -0.65
194.1684 -1.5
194.1966 -1.5
194.2268 -1.7
194.2602 -1.7
194.2934 -1.7
194.3217 -1.5
194.3521 -1.5
194.3839 -1.05
194.4172 -0.2
194.4506 -0.2
194.4839 1.05
194.5155 2.15
194.5442 2.15
194.5718 2.6
194.6018 2.6
194.6319 2.6
194.6606 2.6
194.6924 2.4
194.721 2.15
194.7543 2.15
194.7863 1.5
194.8141 1.05
194.8454 1.05
194.8788 0.4
194.9121 0
194.9454 0
194.9747 -0.2
195.004 -0.2
195.0336 -0.2
195.066 -0.2
195.0993 -0.2
195.1271 -0.2
195.1573 -0.2
195.1894 0
195.2217 0
195.2484 0
195.2777 0.2
195.3087 0.2
195.342 0.2
195.3693 0.2
195.3984 0.2
195.4289 0.2
195.4612 0.2
195.4927 0.2
195.526 0.2
195.5543 0.2
195.5842 0.2
195.6145 0.2
195.6479 0.2
195.6765 0.2
195.7055 0.2
195.7388 0.2
195.7671 0.2
195.7964 0.2
195.8286 0.85
195.8587 2.6
195.8889 2.6
195.921 3.7
195.9507 3.7
195.9799 3.7
196.0095 3.7
196.0389 3.7
196.0722 3.7
196.1008 3.7
196.1295 3.7
196.1572 3.7
196.1864 3.7
196.2172 3.7
196.2493 3.7
196.2801 3.7
196.3105 3.7
196.3439 3.7
196.374 3.7
196.4036 3.7
196.4331 3.7
196.4653 3.7
196.4944 3.7
196.5247 3.7
196.558 3.7
196.5902 3.7
196.6235 3.7
196.6518 3.7
196.681 3.7
196.7133 3.7
196.7424 3.7
196.7724 3.7
196.8058 3.7
196.8342 3.7
196.8648 3.7
196.8934 3.7
196.9234 3.7
196.9516 3.7
196.9838 3.7
197.0171 3.7
197.047 3.7
197.0804 3.7
197.1137 3.7
197.1448 3.7
197.1781 3.7
197.2114 3.7
197.2431 3.7
197.2712 3.7
197.3038 3.7
197.3362 3.7
197.3655 3.7
197.3941 3.7
197.423 3.7
197.4501 3.7
197.4829 3.7
197.5137 3.7
197.547 3.7
197.5799 3.7
197.6133 3.7
197.6413 3.7
197.6712 3.7
197.7046 3.7
197.7333 3.7
197.763 3.7
197.7921 3.7
197.8204 3.7
197.8538 3.7
197.8844 3.7
197.9177 3.7
197.946 3.7
197.9749 3.7
198.0061 3.7
198.0373 3.7
198.0706 3.7
198.1024 3.7
198.1317 3.7
198.1651 3.7
198.1935 3.7
198.2268 3.7
198.2579 3.7
198.2907 3.7
198.32 3.7
198.3519 3.7
198.3832 3.7
198.4164 3.7
198.4437 3.7
198.4755 3.7
198.504 3.7
198.5343 3.7
198.5677 3.7
198.5977 3.7
198.631 3.7
198.6605 3.7
198.6888 3.7
198.72 3.7
198.7502 3.7
198.7822 3.7
198.8128 3.7
198.8416 3.7
198.8748 3.7
198.903 3.7
198.9316 3.7
198.9617 3.7
198.9895 3.7
199.0193 3.7
199.0488 3.7
199.0802 3.7
199.1136 3.7
199.1469 3.7
199.1767 3.7
199.2066 3.7
199.2378 3.7
199.2702 3.7
199.303 3.7
199.3364 3.7
199.3639 3.7
199.3936 3.7
199.4218 3.7
199.4503 3.7
199.4799 3.7
199.5105 3.7
199.5397 3.7
199.57 3.7
199.6033 3.7
199.6342 3.7
199.6612 3.7
199.6909 3.7
199.7205 3.7
199.7503 3.7
199.7781 3.7
199.8075 3.7
199.8357 3.7
199.869 3.7
199.8965 3.7
199.9263 3.7
199.9562 3.7
199.9872 3.7
200.0174 3.7
200.0477 3.7
200.0774 3.7
200.1108 3.7
200.1398 3.7
200.1694 3.7
200.198 3.7
200.2284 3.7
200.256 3.7
200.2871 3.7
200.3204 3.7
200.3492 3.7
200.3809 3.7
200.412 3.7
200.4395 3.7
200.4728 3.7
200.5024 3.7
200.5325 3.7
200.5603 3.7
200.5913 3.7
200.619 3.7
200.6523 3.7
200.6814 3.7
200.712 3.7
200.7437 3.7
200.7771 3.7
200.8094 3.7
200.8427 3.7
200.8718 3.7
200.903 3.7
200.9363 3.7
200.9697 3.7
200.9976 3.7
201.0267 3.7
201.0547 3.7
201.085 3.7
201.1183 3.7
201.1502 3.7
201.1779 3.7
201.2095 3.7
201.2415 3.7
201.2703 3.7
201.3036 3.7
201.335 3.7
201.3631 3.7
201.3964 3.7
201.4256 3.7
201.4588 3.7
201.4917 3.7
201.5206 3.7
201.5488 3.7
201.5776 3.7
201.6054 3.7
201.6387 3.7
201.6661 3.7
201.6994 3.7
201.7285 3.7
201.7618 3.7
201.7952 3.7
201.8261 3.7
201.8553 3.7
201.887 3.7
201.9203 3.7
201.9536 3.7
201.9813 3.7
202.0119 3.7
202.0391 3.7
202.0681 3.7
202.0956 3.7
202.1289 3.7
202.1563 3.7
202.185 3.7
202.2145 3.7
202.2434 3.7
202.2764 3.7
202.3064 3.7
202.3347 3.7
202.3665 3.7
202.3953 3.7
202.4277 3.7
202.4602 3.7
202.4886 3.7
202.5158 3.7
202.5444 3.7
202.5777 3.7
202.6062 3.7
202.6352 3.7
202.6656 3.7
202.6968 3.7
202.7301 3.7
202.7584 3.7
202.7879 3.7
202.8189 3.7
202.8496 3.7
202.8794 3.7
202.9123 3.7
202.942 3.7
202.9754 3.7
203.0032 3.7
203.0345 3.7
203.0666 3.7
203.0973 3.7
203.1243 3.7
203.1574 3.7
203.1847 3.7
203.218 3.7
203.2497 3.7
203.2819 3.7
203.3107 3.7
203.344 3.7
203.3761 3.7
203.406 3.7
203.4368 3.7
203.4657 3.7
203.4989 3.7
203.5275 3.7
203.5554 3.7
203.584 3.7
203.6119 3.7
203.6436 3.7
203.6754 3.7
203.7087 3.7
203.7375 3.7
203.7708 3.7
203.7997 3.7
203.83 3.7
203.8633 3.7
203.8939 3.7
203.9271 3.7
203.9604 3.7
203.9889 3.7
204.0176 3.7
204.0505 3.7
204.0808 3.7
204.1125 3.7
204.1426 3.7
204.1713 3.7
204.2008 3.7
204.2286 3.7
204.2574 3.7
204.2884 3.7
204.3172 3.7
204.3505 3.7
204.3836 3.7
204.417 3.7
204.4471 3.7
204.4756 3.7
204.5065 3.7
204.5366 3.7
204.5699 3.7
204.599 3.7
204.6277 3.7
204.6601 3.7
204.6935 3.7
204.7259 3.7
204.7556 3.7
204.7854 3.7
204.8187 3.7
204.8475 3.7
204.8763 3.7
204.9054 3.7
204.9388 3.7
204.9718 3.7
205.0043 3.7
205.0352 3.7
205.0685 3.7
205.1001 3.7
205.1304 3.7
205.1581 3.7
205.1903 3.7
205.218 3.7
205.2489 3.7
205.2778 3.7
205.3112 3.7
205.3445 3.7
205.3761 3.7
205.4052 3.7
205.4384 3.7
205.4702 3.7
205.4991 3.7
205.5268 3.7
205.5571 3.7
205.5851 3.7
205.6185 3.7
205.6499 3.7
205.6833 3.7
205.7125 3.7
205.7414 3.7
205.7723 3.7
205.8056 3.7
205.8335 3.7
205.8625 3.7
205.893 3.7
205.925 3.7
205.9543 3.7
205.9869 3.7
206.0203 3.7
206.0536 3.7
206.0868 3.7
206.1159 3.7
206.1477 3.7
206.178 3.7
206.2071 3.7
206.2381 3.7
206.2715 3.7
206.3009 3.7
206.3293 3.7
206.3626 3.7
206.3921 3.7
206.4245 3.7
206.4527 3.7
206.4861 3.7
206.5194 3.7
206.5512 3.7
206.5811 3.7
206.6118 3.7
206.6452 3.7
206.6769 3.7
206.7103 3.7
206.7436 3.7
206.7721 3.7
206.8054 3.7
206.8368 3.7
206.8665 3.7
206.8961 3.7
206.9294 3.7
206.9604 3.7
206.9938 3.7
207.0239 3.7
207.0564 3.7
207.0863 3.7
207.1166 3.7
207.1442 3.7
207.1775 3.7
207.2059 3.7
207.2372 3.7
207.2684 3.7
207.2973 3.7
207.3253 3.7
207.3556 3.7
207.3843 3.7
207.4176 3.7
207.4482 3.7
207.4816 3.7
207.5149 3.7
207.5459 3.7
207.5793 3.7
207.6126 3.7
207.6404 3.7
207.6731 3.7
207.7036 3.7
207.733 3.7
207.7614 3.7
207.7947 3.7
207.828 3.7
207.8568 3.7
207.8844 3.7
207.914 3.7
207.9445 3.7
207.977 3.7
208.005 3.7
208.0383 3.7
208.0665 3.7
208.0998 3.7
208.1331 3.7
208.1653 3.7
208.1974 3.7
208.2273 3.7
208.2607 3.7
208.2906 3.7
208.3205 3.7
208.3492 3.7
208.3826 3.7
208.411 3.7
208.4427 3.7
208.476 3.7
208.507 3.7
208.5403 3.7
208.5736 3.7
208.607 3.7
208.6389 3.7
208.6706 3.7
208.7028 3.7
208.7356 3.7
208.7639 3.7
208.7953 3.7
208.8238 3.7
208.8571 3.7
208.8904 3.7
208.9209 3.7
208.9543 3.7
208.9858 3.7
209.0187 3.7
209.0515 3.7
209.0848 3.7
209.1166 3.7
209.1499 3.7
209.1797 3.7
209.2102 3.7
209.2435 3.7
209.2753 3.7
209.3078 3.7
209.3353 3.7
209.3672 3.7
209.3977 3.7
209.4269 3.7
209.4602 3.7
209.4936 3.7
209.5218 3.7
209.5523 3.7
209.5846 3.7
209.617 3.7
209.6504 3.7
209.6793 3.7
209.7082 3.7
209.74 3.7
209.769 3.7
209.7986 3.7
209.8275 3.7
209.8566 3.7
209.8896 3.7
209.923 3.7
209.9507 3.7
209.9804 3.7
210.0138 3.7
210.043 3.7
210.0735 3.7
210.1068 3.7
210.1374 3.7
210.1679 3.7
210.198 3.7
210.2293 3.7
210.2591 3.7
210.2918 3.7
210.3219 3.7
210.3552 3.7
210.3835 3.7
210.4126 3.7
210.4401 3.7
210.472 3.7
210.5014 3.7
210.5301 3.7
210.5598 3.7
210.593 3.7
210.6208 3.7
210.654 3.7
210.6828 3.7
210.7157 3.7
210.7465 3.7
210.7798 3.7
210.8078 3.7
210.8411 3.7
210.8744 3.7
210.9033 3.7
210.931 3.7
210.9609 3.7
210.9904 3.7
211.0237 3.7
211.057 3.7
211.0885 3.7
211.1176 3.7
211.1509 3.7
211.1798 3.7
211.2095 3.7
211.2375 3.7
211.2709 3.7
211.3042 3.7
211.3351 3.7
211.3684 3.7
211.3974 3.7
211.4263 3.7
211.4562 3.7
211.484 3.7
211.5173 3.7
211.545 3.7
211.5758 3.7
211.6091 3.7
211.6377 3.7
211.67 3.7
211.7033 3.7
211.7339 3.7
211.7673 3.7
211.8006 3.7
211.8313 3.7
211.8598 3.7
211.8916 3.7
211.9211 3.7
211.9508 3.7
211.9841 3.7
212.0175 3.7
212.0508 3.7
212.0841 3.7
212.1129 3.7
212.1436 3.7
212.1734 3.7
212.2068 3.7
212.2386 3.7
212.2686 3.7
212.2974 3.7
212.327 3.7
212.3559 3.7
212.3882 3.7
212.4209 3.7
212.4543 3.7
212.4823 3.7
212.5115 3.7
212.5404 3.7
212.57 3.7
212.5979 3.7
212.6312 3.7
212.6599 3.7
212.6902 3.7
212.7192 3.7
212.7525 3.7
212.7816 3.7
212.8104 3.7
212.8386 3.7
212.8719 3.7
212.9053 3.7
212.9344 3.7
212.965 3.7
212.9944 3.7
213.0219 3.7
213.0552 3.7
213.0886 3.7
213.1169 3.7
213.1448 3.7
213.1771 3.7
213.2059 3.7
213.2359 3.7
213.2692 3.7
213.3022 3.7
213.3355 3.7
213.3659 3.7
213.394 3.7
213.4242 3.7
213.4541 3.7
213.4833 3.7
213.5156 3.7
213.5489 3.7
213.5823 3.7
