時間[s] タイヤの舵角[deg]
0 0
0.02 1.05
0.05333333 0.85
0.08666666 0.85
0.12 0.85
0.1527746 0.85
0.185832 0.85
0.2165882 0.85
0.2495385 0.85
0.2805147 0.85
0.313848 0.85
0.3430053 0.85
0.3747799 0.85
0.4037915 0.85
0.4335223 0.85
0.462996 0.85
0.4963294 0.85
0.5243478 0.85
0.5528743 0.85
0.5816039 0.85
0.6103306 0.85
0.639936 0.85
0.6732694 0.85
0.7013441 0.85
0.7308083 0.85
0.7625833 0.85
0.7959166 0.85
0.8264517 0.85
0.8570635 0.85
0.8852256 0.85
0.9160411 0.85
0.9493744 0.85
0.98269 0.85
1.014609 0.85
1.046941 0.85
1.078656 0.85
1.110396 0.85
1.143729 0.85
1.175452 0.85
1.207074 0.85
1.240407 0.85
1.269892 0.85
1.303226 0.85
1.336559 0.85
1.368192 0.85
1.400165 0.85
1.429383 0.85
1.460815 0.85
1.490867 0.85
1.522383 0.85
1.553586 0.85
1.586728 0.85
1.617749 0.85
1.64738 0.85
1.680713 -0.2
1.71098 -0.2
1.741472 -4.35
1.774805 -4.35
1.808077 -7.6
1.84141 -11.55
1.873959 -11.55
1.907292 -14.6
1.93887 -16.15
1.972203 -16.15
2.003374 -16.35
2.03538 -15.5
2.068713 -15.5
2.102047 -12.65
2.132593 -9.15
2.165926 -9.15
2.199174 -4.55
2.228526 -0.65
2.259948 -0.65
2.292951 1.3
2.324642 2.4
2.357975 2.4
2.391309 2.4
2.424642 2.15
2.457975 1.3
2.491309 1.3
2.521901 0.4
2.551418 -1.05
2.584751 -1.05
2.614406 -2.15
2.645795 -2.15
2.675576 -2.8
2.708909 -2.8
2.739779 -2.8
2.769598 -2.8
2.802931 -2.8
2.833491 -2.8
2.863039 -2.8
2.895906 -2.8
2.929239 -2.8
2.961622 -2.8
2.990431 -2.8
3.022202 -2.8
3.055535 -2.8
3.084234 -2.8
3.117568 -2.8
3.149461 -2.8
3.17902 -2.8
3.212353 -2.8
3.241999 -2.8
3.271719 -2.8
3.301591 -2.8
3.32964 -2.8
3.36191 -2.8
3.395244 -2.8
3.425516 -2.8
3.458849 -2.8
3.492183 -2.8
3.522919 -2.8
3.553917 -2.8
3.584967 -2.8
3.6183 -2.8
3.648314 -2.8
3.681648 -2.8
3.712706 -2.8
3.746039 -2.8
3.776334 -2.8
3.809515 -2.8
3.842848 -2.8
3.876181 -2.8
3.909515 -2.8
3.937859 -2.8
3.971193 -2.8
4.003541 -2.8
4.036875 -2.8
4.067391 -2.8
4.100724 -2.8
4.134058 -2.8
4.164656 -2.8
4.197618 -2.8
4.226852 -2.8
4.258334 -2.8
4.291667 -2.8
4.321989 -2.8
4.355322 -2.8
4.388655 -2.8
4.418436 -2.8
4.450538 -2.8
4.482082 -2.8
4.51181 -2.8
4.542246 -2.8
4.572886 -2.8
4.601295 -2.8
4.631227 -2.8
4.662781 -2.8
4.693857 -2.8
4.725841 -2.8
4.755044 -2.8
4.788377 -2.8
4.818181 -2.8
4.851514 -2.8
4.881473 -2.8
4.9145 -2.8
4.947833 -2.8
4.979202 -2.8
5.010634 -2.8
5.04 -2.8
5.072866 -2.8
5.1062 -2.8
5.138836 -2.8
5.168779 -2.8
5.201843 -2.8
5.231643 -2.8
5.264976 -2.8
5.294061 -2.8
5.326396 -2.8
5.356625 -2.8
5.386605 -2.8
5.41934 -2.8
5.450393 -2.8
5.483727 -2.8
5.515346 -2.8
5.544004 -2.8
5.574656 -2.8
5.605375 -2.8
5.634889 -2.8
5.66817 -2.8
5.700355 -2.8
5.730703 -2.8
5.763565 -2.8
5.794107 -2.8
5.824196 -2.8
5.856757 -2.8
5.887089 -2.8
5.920423 -2.8
5.953756 -2.8
5.982546 -2.8
6.012664 -2.8
6.045422 -2.8
6.07835 -2.8
6.111683 -2.8
6.142032 -2.8
6.175365 -2.8
6.205263 -2.8
6.238596 -2.8
6.269146 -2.8
6.301413 -2.8
6.334746 -2.8
6.366439 -2.8
6.39688 -2.8
6.428373 -2.8
6.461706 -2.8
6.494018 -2.8
6.524598 -2.8
6.557931 -2.8
6.589509 -2.8
6.62129 -2.8
6.654624 -2.8
6.685699 -2.8
6.716458 -2.8
6.749792 -2.8
6.783125 -2.8
6.815507 -2.8
6.846019 -2.8
6.876963 -2.8
6.907398 -2.8
6.93691 -2.8
6.970243 -2.8
7.003576 -2.8
7.03691 -2.8
7.066001 -2.8
7.099334 -2.8
7.132668 -2.8
7.160582 -2.8
7.190939 -2.8
7.223629 -2.8
7.252654 -2.8
7.283428 -2.8
7.314533 -2.8
7.347866 -2.8
7.379395 -2.8
7.412728 -2.8
7.442424 -2.8
7.473339 -2.8
7.506672 -2.8
7.537296 -2.8
7.567502 -2.8
7.600835 -2.8
7.632101 -2.8
7.662804 -2.8
7.694201 -2.8
7.72725 -2.8
7.760583 -2.8
7.793917 -2.8
7.824419 -2.8
7.857752 -2.8
7.891086 -2.8
7.924419 -2.8
7.954867 -2.8
7.987873 -2.8
8.018154 -2.8
8.050283 -2.8
8.082026 -2.8
8.115358 -2.8
8.148692 -2.8
8.178057 -2.8
8.206112 -2.8
8.239446 -2.8
8.268595 -2.8
8.301099 -2.8
8.330202 -2.8
8.363536 -2.8
8.39687 -2.8
8.430202 -2.8
8.460321 -2.8
8.492106 -2.8
8.522737 -2.8
8.55266 -2.8
8.582834 -2.8
8.616168 -2.8
8.646789 -2.8
8.676323 -2.8
8.709657 -2.8
8.73849 -2.8
8.771823 -2.8
8.805157 -2.8
8.834695 -2.8
8.864506 -2.8
8.897839 -2.8
8.931172 -2.8
8.964239 -2.8
8.997379 -2.8
9.025672 -2.8
9.053816 -2.8
9.087149 -2.8
9.11671 -2.8
9.1459 -2.8
9.175155 -2.8
9.205348 -2.8
9.233603 -2.8
9.262876 -2.8
9.293845 -2.8
9.327179 -2.8
9.360512 -2.8
9.392268 -2.8
9.423655 -2.8
9.45573 -2.8
9.485274 -2.8
9.51458 -2.8
9.544368 -2.8
9.577525 -2.8
9.608169 -2.8
9.639754 -2.8
9.673088 -2.8
9.70603 -2.8
9.73838 -2.8
9.771714 -2.8
9.801334 -2.8
9.83154 -2.8
9.862377 -2.8
9.895711 -2.8
9.929044 -2.8
9.960514 -2.8
9.990557 -2.8
10.02045 -2.8
10.0513 -2.8
10.0812 -2.8
10.11318 -2.8
10.1434 -2.8
10.17674 -2.8
10.20632 -2.8
10.23766 -2.8
10.26803 -2.8
10.30136 -2.8
10.33248 -2.8
10.36543 -2.8
10.39677 -2.8
10.43011 -2.8
10.46344 -2.8
10.49484 -2.8
10.52817 -2.8
10.55836 -2.8
10.58974 -2.8
10.62307 -2.8
10.65391 -2.8
10.68724 -2.8
10.71747 -2.8
10.7508 -2.8
10.7825 -2.8
10.81069 -2.8
10.84085 -2.8
10.87109 -2.8
10.90442 -2.8
10.93726 -2.8
10.9678 -2.8
11.00036 -2.8
11.0332 -2.8
11.06446 -2.8
11.09779 -2.8
11.13063 -2.8
11.16144 -2.8
11.19477 -3.25
11.22416 -3.25
11.25607 -4.35
11.28529 -6.3
11.31822 -6.3
11.34967 -8.05
11.37939 -10
11.40972 -10
11.44306 -11.55
11.47639 -11.55
11.50726 -12.45
11.5406 -12.65
11.57268 -12.65
11.60326 -12.65
11.63659 -12.65
11.66993 -12.65
11.70159 -12.65
11.73492 -12.45
11.7648 -12.2
11.79814 -12.2
11.83065 -12.2
11.86012 -12.2
11.89346 -12
11.92626 -12
11.95729 -12
11.99062 -12
12.02102 -12.2
12.05435 -13.1
12.0843 -13.1
12.11539 -14.6
12.14866 -14.6
12.1808 -15.7
12.21313 -16.6
12.24647 -16.6
12.2798 -17
12.31257 -17
12.34305 -17
12.37417 -17
12.40522 -17
12.43524 -17
12.46685 -17
12.49889 -17
12.53222 -17
12.56556 -17.45
12.59889 -19
12.62751 -19
12.65581 -20.75
12.68813 -20.75
12.71989 -22.7
12.75323 -24.2
12.78349 -24.2
12.81319 -25.55
12.84192 -25.55
12.87111 -25.95
12.90445 -25.95
12.93371 -25.95
12.96705 -25.95
12.99816 -25.95
13.02739 -25.95
13.05727 -25.95
13.09046 -25.95
13.12134 -25.95
13.1522 -25.95
13.18553 -25.95
13.21793 -25.75
13.24756 -25.55
13.28089 -25.55
13.30978 -24.45
13.34135 -23.15
13.37357 -23.15
13.4051 -20.95
13.43449 -18.55
13.46754 -18.55
13.49719 -16.35
13.53052 -16.35
13.56386 -13.75
13.59673 -11.75
13.62953 -11.75
13.66266 -8.95
13.69336 -7.4
13.72176 -7.4
13.75266 -6.3
13.78153 -5.45
13.8097 -5.45
13.84171 -5.45
13.87382 -5.45
13.90267 -5.45
13.936 -5.45
13.96698 -5.45
13.99579 -5.45
14.02912 -5.45
14.05919 -5.45
14.09064 -5.45
14.12174 -5.45
14.15363 -5.45
14.18696 -5.45
14.21617 -5.45
14.24626 -5.45
14.27959 -5.45
14.30869 -5.45
14.33775 -5.45
14.36689 -5.45
14.39744 -5.45
14.42674 -5.45
14.45913 -5.45
14.49067 -5.45
14.52128 -5.45
14.55455 -5.45
14.58375 -5.45
14.61708 -5.45
14.64797 -5.45
14.67683 -5.45
14.70756 -5.45
14.74028 -5.45
14.77192 -5.45
14.80145 -5.45
14.83386 -5.45
14.86317 -5.45
14.89272 -5.45
14.92606 -5.45
14.95939 -5.45
14.99272 -5.45
15.02104 -5.45
15.05124 -5.45
15.08416 -5.45
15.1175 -5.45
15.1477 -5.45
15.17852 -5.45
15.20898 -5.45
15.24231 -5.45
15.27564 -5.45
15.30898 -5.45
15.33855 -5.45
15.37188 -5.45
15.40135 -5.45
15.43468 -5.45
15.46452 -5.45
15.49785 -5.45
15.53119 -5.45
15.56376 -5.45
15.5971 -5.45
15.62879 -5.45
15.65882 -5.45
15.69113 -5.45
15.72446 -5.45
15.7578 -5.45
15.78872 -5.45
15.81784 -5.45
15.85052 -5.45
15.88248 -5.45
15.91336 -5.45
15.94567 -5.45
15.97462 -5.45
16.00601 -5.45
16.03474 -5.45
16.06496 -5.45
16.0943 -5.45
16.12577 -5.45
16.15635 -5.45
16.18969 -5.45
16.22302 -5.45
16.25555 -5.45
16.28637 -5.45
16.31871 -5.45
16.3488 -5.45
16.38025 -5.45
16.40982 -5.45
16.44209 -5.45
16.47437 -5.45
16.50418 -5.45
16.53636 -5.45
16.56856 -5.45
16.59894 -5.45
16.62924 -5.45
16.66085 -5.45
16.68924 -5.45
16.71974 -5.45
16.75307 -5.45
16.7841 -5.45
16.81364 -5.45
16.84359 -5.45
16.87307 -5.45
16.9064 -5.45
16.93795 -5.45
16.97128 -5.45
17.00462 -5.45
17.03442 -5.45
17.06503 -5.45
17.09482 -5.45
17.12544 -5.45
17.15773 -5.45
17.18647 -5.45
17.2198 -5.45
17.24924 -5.45
17.27845 -5.45
17.3106 -5.45
17.33937 -5.45
17.36962 -5.45
17.40029 -5.45
17.43035 -5.45
17.46286 -5.45
17.49599 -5.45
17.52904 -5.45
17.56154 -5.45
17.59353 -5.45
17.62627 -5.45
17.65961 -5.45
17.68975 -5.45
17.71879 -5.45
17.75212 -5.45
17.78546 -5.45
17.81807 -5.45
17.85141 -5.45
17.88474 -5.45
17.9159 -5.45
17.94866 -5.45
17.9802 -5.45
18.01353 -5.45
18.0437 -5.45
18.07703 -5.45
18.11036 -5.45
18.1437 -5.45
18.17469 -5.45
18.20431 -5.45
18.23438 -5.45
18.26771 -5.45
18.30104 -5.45
18.33438 -5.45
18.36771 -5.45
18.39763 -5.45
18.43096 -5.45
18.46027 -5.45
18.49001 -5.45
18.52186 -5.45
18.55519 -5.45
18.58853 -5.45
18.61813 -5.45
18.65146 -5.45
18.68309 -5.45
18.71374 -5.45
18.74707 -5.45
18.7804 -5.45
18.81374 -5.45
18.84336 -5.45
18.87669 -5.45
18.91002 -5.45
18.94112 -5.45
18.97146 -5.45
19.00016 -5.45
19.03254 -5.45
19.06588 -5.45
19.09896 -5.45
19.12814 -5.45
19.15815 -5.45
19.18843 -5.45
19.22177 -5.45
19.2551 -5.45
19.28731 -5.45
19.31689 -5.45
19.34723 -5.45
19.38057 -5.45
19.41023 -5.45
19.44356 -5.45
19.47321 -5.45
19.50529 -5.45
19.53863 -5.45
19.56685 -5.45
19.5965 -5.45
19.62984 -5.45
19.66187 -5.45
19.6952 -5.45
19.72406 -5.45
19.75468 -5.45
19.78801 -5.45
19.81856 -5.45
19.8519 -5.45
19.88371 -5.45
19.91704 -5.45
19.94725 -5.45
19.97842 -5.45
20.01175 -5.45
20.04367 -5.45
20.07476 -5.45
20.10477 -5.45
20.13811 -5.45
20.17144 -5.45
20.20304 -5.45
20.23518 -5.45
20.26523 -5.45
20.29856 -5.45
20.3319 -5.45
20.36523 -5.45
20.39642 -5.45
20.42946 -5.45
20.4628 -5.45
20.49613 -5.45
20.52946 -5.45
20.56004 -5.45
20.59047 -5.45
20.6238 -5.45
20.65713 -5.45
20.68696 -5.45
20.72029 -5.45
20.7512 -5.45
20.78325 -5.45
20.81659 -5.45
20.84992 -5.45
20.88325 -5.45
20.91371 -5.45
20.94466 -5.45
20.978 -5.45
21.00706 -5.45
21.03633 -5.45
21.06582 -5.45
21.09916 -5.45
21.13249 -5.45
21.16338 -5.45
21.19571 -5.45
21.2287 -5.45
21.25799 -5.45
21.29132 -5.45
21.32465 -5.45
21.35357 -5.45
21.38357 -5.45
21.4169 -5.45
21.45024 -5.45
21.48357 -5.45
21.5169 -5.45
21.55024 -5.45
21.58217 -5.45
21.61551 -5.45
21.64426 -5.45
21.6742 -5.45
21.70527 -5.45
21.73664 -5.45
21.76997 -5.45
21.80021 -5.45
21.83354 -5.45
21.86132 -5.45
21.89362 -5.45
21.92695 -5.45
21.95773 -5.45
21.99106 -5.45
22.02225 -5.45
22.05298 -5.45
22.08632 -5.45
22.11526 -5.45
22.14729 -5.45
22.18053 -5.45
22.21303 -5.45
22.24636 -5.45
22.27757 -5.45
22.30894 -5.45
22.34227 -5.45
22.37463 -5.45
22.40796 -5.45
22.44003 -5.45
22.47028 -5.45
22.49947 -5.45
22.5328 -5.45
22.56613 -5.45
22.59538 -5.45
22.62575 -5.45
22.65718 -5.45
22.68794 -5.45
22.72127 -5.45
22.75461 -5.45
22.78794 -5.45
22.81803 -5.45
22.85028 -5.45
22.88361 -5.45
22.91679 -5.45
22.94755 -5.45
22.97725 -5.45
23.01058 -5.45
23.04392 -5.45
23.07335 -5.45
23.10452 -5.45
23.13343 -5.45
23.1635 -5.45
23.19683 -5.45
23.23017 -5.45
23.25881 -5.45
23.29214 -5.45
23.32279 -5.45
23.35612 -5.45
23.38945 -5.45
23.41967 -5.45
23.45134 -5.45
23.48467 -5.45
23.518 -5.45
23.55134 -5.45
23.58143 -5.45
23.61306 -5.45
23.64639 -5.45
23.67973 -5.45
23.71306 -5.45
23.74352 -5.45
23.77685 -5.45
23.81018 -5.45
23.84352 -5.45
23.87685 -5.45
23.9064 -5.45
23.93903 -5.45
23.97233 -5.45
24.00566 -5.45
24.03454 -5.45
24.0655 -5.45
24.09883 -5.45
24.12824 -5.45
24.16157 -5.45
24.19144 -5.45
24.22478 -5.45
24.25587 -5.45
24.2868 -5.45
24.32013 -5.45
24.35075 -5.45
24.38408 -5.45
24.41325 -5.45
24.4444 -5.45
24.47773 -5.45
24.51107 -5.45
24.54083 -5.45
24.57417 -5.45
24.6075 -5.45
24.63675 -5.45
24.67009 -5.45
24.70342 -5.45
24.73675 -5.45
24.77009 -5.45
24.79899 -5.45
24.83187 -5.45
24.86155 -5.45
24.89488 -5.45
24.92821 -5.45
24.95934 -5.45
24.99027 -5.45
25.02117 -5.45
25.0545 -5.45
25.08784 -5.45
25.12117 -5.45
25.15141 -5.45
25.18475 -5.45
25.21808 -5.45
25.25141 -5.45
25.28422 -5.45
25.31539 -5.45
25.34372 -5.45
25.37325 -5.45
25.40659 -5.45
25.43992 -5.45
25.4719 -5.45
25.50313 -5.45
25.53474 -5.45
25.56808 -5.45
25.60141 -5.45
25.63326 -5.45
25.66431 -5.45
25.69389 -5.45
25.72722 -5.45
25.75802 -5.45
25.78848 -5.45
25.81839 -5.45
25.85173 -5.45
25.88506 -5.45
25.91839 -5.45
25.94981 -5.45
25.98025 -5.45
26.01062 -5.45
26.04395 -5.45
26.07729 -5.45
26.10693 -5.45
26.14026 -5.45
26.17204 -5.45
26.20538 -5.45
26.23421 -5.45
26.26556 -5.45
26.29657 -5.45
26.3299 -5.45
26.36324 -5.45
26.39149 -5.45
26.42482 -5.45
26.45472 -5.45
26.48655 -5.45
26.51988 -5.45
26.54832 -5.45
26.57942 -5.45
26.6094 -5.45
26.64059 -5.45
26.67392 -5.45
26.70725 -5.45
26.73588 -5.45
26.76453 -5.45
26.79442 -5.45
26.82776 -5.45
26.85863 -5.45
26.89098 -5.45
26.92431 -5.45
26.95362 -5.45
26.98695 -5.45
27.01939 -5.45
27.05021 -5.45
27.0822 -5.45
27.11553 -5.45
27.14886 -5.45
27.17807 -5.45
27.21072 -5.45
27.24406 -5.45
27.27673 -5.45
27.31007 -5.45
27.34198 -5.45
27.37439 -5.45
27.40577 -5.45
27.4391 -5.45
27.47243 -5.45
27.50207 -5.45
27.53363 -5.45
27.56697 -5.45
27.59772 -5.45
27.63105 -5.45
27.66438 -5.45
27.69682 -5.45
27.72594 -5.45
27.75607 -5.45
27.7894 -5.45
27.82053 -5.45
27.85386 -5.45
27.88631 -5.45
27.91965 -5.45
27.95298 -5.45
27.98424 -5.45
28.01465 -5.45
28.04798 -5.45
28.08132 -5.45
28.11465 -5.45
28.14715 -5.45
28.18048 -5.45
28.21275 -5.45
28.24367 -5.45
28.277 -5.45
28.30665 -5.45
28.33797 -5.45
28.3713 -5.45
28.40335 -5.45
28.43668 -5.45
28.46653 -5.45
28.49987 -5.45
28.53065 -5.45
28.56398 -5.45
28.59731 -5.45
28.63034 -5.45
28.66368 -5.45
28.6968 -5.45
28.72671 -5.45
28.76004 -5.45
28.79037 -5.45
28.8215 -5.45
28.85118 -5.45
28.88452 -5.45
28.91785 -5.45
28.94771 -5.45
28.97846 -5.45
29.01179 -5.45
29.04413 -5.45
29.07747 -5.45
29.1108 -5.45
29.14413 -5.45
29.17497 -5.45
29.20796 -5.45
29.24129 -5.45
29.27091 -5.45
29.30098 -5.45
29.33064 -5.45
29.36259 -5.45
29.39593 -5.45
29.42841 -5.45
29.45887 -5.45
29.4913 -5.45
29.52176 -5.45
29.55509 -5.45
29.58655 -5.45
29.61602 -5.45
29.64649 -5.45
29.67982 -5.45
29.71316 -5.45
29.74453 -5.45
29.77393 -5.45
29.80461 -5.45
29.83651 -5.45
29.86984 -5.45
29.90051 -5.45
29.93385 -5.45
29.9665 -5.45
29.99984 -5.45
30.03317 -5.45
30.06388 -5.45
30.09596 -5.45
30.12929 -5.45
30.16262 -5.45
30.19596 -5.45
30.22727 -5.45
30.2606 -5.45
30.29393 -5.45
30.32727 -5.45
30.3606 -5.45
30.39245 -5.45
30.42578 -5.45
30.45911 -5.45
30.49245 -5.45
30.52578 -5.45
30.55515 -5.45
30.58542 -5.45
30.61569 -5.45
30.64902 -5.45
30.68236 -5.45
30.71569 -5.45
30.74724 -5.2
30.78004 -5.2
30.81245 -4.8
30.84578 -4.35
30.87582 -4.35
30.90489 -3.9
30.93398 -3.7
30.96545 -3.7
30.99878 -3.25
31.02965 -3.25
31.06053 -3.25
31.09387 -3.25
31.12411 -3.25
31.15745 -3.25
31.19078 -3.25
31.21975 -3.45
31.25177 -3.45
31.2851 -4.15
31.31843 -5.2
31.34967 -5.2
31.383 -6.55
31.41582 -7.4
31.44645 -7.4
31.47978 -8.5
31.5093 -9.15
31.53912 -9.6
31.57028 -9.6
31.60361 -9.6
31.63695 -9.6
31.67028 -9.6
31.70361 -9.6
31.73695 -9.6
31.77028 -9.6
31.80353 -9.6
31.83546 -9.6
31.86641 -9.6
31.89936 -9.6
31.93269 -9.6
31.96304 -9.6
31.99637 -9.6
32.02971 -9.6
32.06141 -9.6
32.09474 -9.6
32.12807 -9.6
32.1575 -9.6
32.18788 -9.6
32.21833 -9.6
32.25166 -9.6
32.28424 -9.6
32.31758 -9.6
32.35091 -9.6
32.38209 -9.6
32.41542 -9.6
32.44561 -9.6
32.47895 -9.6
32.50829 -9.6
32.54031 -9.6
32.57364 -9.6
32.60581 -9.6
32.63914 -9.6
32.67248 -9.6
32.7022 -9.6
32.73553 -9.6
32.76786 -9.6
32.79908 -9.6
32.82952 -9.35
32.86129 -9.35
32.89463 -9.35
32.92796 -9.35
32.95792 -9.35
32.98768 -9.35
33.01838 -9.35
33.05171 -9.35
33.08504 -9.35
33.11753 -9.35
33.14687 -9.35
33.1802 -9.35
33.21353 -9.35
33.24414 -9.35
33.27748 -9.35
33.31081 -9.35
33.3427 -9.35
33.37603 -9.35
33.40868 -9.35
33.43952 -9.35
33.47187 -9.35
33.50225 -9.35
33.53558 -9.35
33.56891 -9.35
33.59917 -9.35
33.6325 -9.35
33.66219 -9.35
33.69553 -9.35
33.72753 -9.35
33.75745 -9.35
33.78719 -9.35
33.81822 -9.35
33.85155 -9.35
33.88489 -9.35
33.91379 -9.35
33.94373 -9.35
33.97401 -9.35
34.00734 -9.35
34.0374 -9.35
34.07074 -9.35
34.0999 -9.35
34.13039 -9.35
34.16372 -9.35
34.19706 -9.35
34.22716 -9.35
34.25989 -9.35
34.28947 -9.35
34.32281 -9.35
34.35614 -9.35
34.38733 -9.35
34.42066 -9.35
34.45161 -9.35
34.48495 -9.35
34.51828 -9.35
34.54752 -9.35
34.57669 -9.35
34.60806 -9.35
34.6414 -9.35
34.67443 -9.35
34.70572 -9.35
34.73647 -9.35
34.76909 -9.35
34.80242 -9.35
34.83255 -9.35
34.86278 -9.35
34.8932 -9.35
34.9254 -9.35
34.95873 -9.35
34.99098 -9.35
35.02145 -9.35
35.05087 -9.35
35.08113 -9.35
35.11446 -9.35
35.1478 -9.35
35.17753 -9.35
35.20734 -9.35
35.2392 -9.35
35.27253 -9.35
35.30587 -9.35
35.33699 -9.35
35.36759 -9.35
35.39925 -9.35
35.43258 -9.35
35.46487 -9.35
35.49545 -9.35
35.52878 -9.35
35.56089 -9.35
35.59423 -9.35
35.62553 -9.35
35.65744 -9.35
35.69077 -9.35
35.72055 -9.35
35.75389 -9.35
35.78374 -9.35
35.81708 -9.35
35.84716 -9.35
35.87966 -9.35
35.91299 -9.35
35.94383 -9.35
35.97716 -9.35
36.00731 -9.35
36.0386 -9.35
36.07194 -9.35
36.10228 -9.35
36.13562 -9.35
36.16527 -9.35
36.1957 -9.35
36.22903 -9.35
36.25798 -9.35
36.289 -9.35
36.31987 -9.35
36.35321 -9.35
36.38654 -9.35
36.41736 -9.35
36.45026 -9.35
36.48012 -9.35
36.51132 -9.35
36.54465 -9.35
36.57798 -9.35
36.61132 -9.35
36.64105 -9.35
36.67033 -9.35
36.70367 -9.35
36.737 -9.35
36.76768 -9.35
36.80021 -9.35
36.83146 -9.35
36.86479 -9.35
36.89471 -9.35
36.92805 -9.35
36.95742 -9.35
36.98689 -9.35
37.02023 -9.35
37.05356 -9.35
37.08432 -9.35
37.11765 -9.35
37.14715 -9.35
37.18048 -9.35
37.21382 -9.35
37.24186 -9.35
37.27174 -9.35
37.30508 -9.35
37.33841 -9.35
37.37174 -9.35
37.40508 -9.35
37.43595 -9.35
37.46928 -9.35
37.50262 -9.35
37.53445 -9.35
37.56626 -9.35
37.59802 -9.35
37.62737 -9.35
37.6607 -9.35
37.69403 -9.35
37.72377 -9.35
37.75628 -9.35
37.78775 -9.35
37.82109 -9.35
37.85442 -9.35
37.88775 -9.35
37.92105 -9.35
37.95079 -9.35
37.98412 -9.35
38.01677 -9.35
38.04676 -9.35
38.07782 -9.35
38.11116 -9.35
38.14449 -9.35
38.17782 -9.35
38.20724 -9.35
38.24057 -9.35
38.2739 -9.35
38.30724 -9.35
38.33703 -9.35
38.36729 -9.35
38.39606 -9.35
38.42672 -9.35
38.46005 -9.35
38.48988 -9.35
38.52322 -9.35
38.55655 -9.35
38.58989 -9.35
38.62322 -9.35
38.65282 -9.35
38.68203 -9.35
38.71422 -9.35
38.74358 -9.35
38.77692 -9.35
38.81025 -9.35
38.84069 -9.35
38.86971 -9.35
38.90304 -9.35
38.93637 -9.35
38.96971 -9.35
38.9997 -9.35
39.03228 -9.35
39.06561 -9.35
39.09894 -9.35
39.12886 -9.35
39.15892 -9.35
39.18871 -9.35
39.21849 -9.35
39.25182 -9.35
39.28515 -9.35
39.31461 -9.35
39.34554 -9.35
39.37619 -9.35
39.40952 -9.35
39.44074 -9.35
39.47191 -9.35
39.50266 -9.35
39.53599 -9.35
39.56932 -9.35
39.60265 -9.35
39.63172 -9.35
39.66478 -9.35
39.69804 -9.35
39.73137 -9.35
39.76005 -9.35
39.7921 -9.35
39.82544 -9.35
39.85497 -9.35
39.88831 -9.35
39.91936 -9.35
39.95077 -9.35
39.98101 -9.35
40.01434 -9.35
40.04768 -9.35
40.08101 -9.35
40.11427 -9.15
40.14761 -9.15
40.17935 -9.15
40.21268 -9.15
40.24601 -9.15
40.27621 -9.15
40.30853 -9.15
40.33893 -9.15
40.37226 -9.15
40.40356 -9.15
40.43463 -9.15
40.46508 -9.15
40.49492 -9.15
40.52825 -9.15
40.56158 -9.15
40.59043 -9.15
40.62376 -9.15
40.65305 -9.15
40.68638 -9.15
40.71695 -9.15
40.75029 -9.15
40.77996 -9.15
40.8097 -9.15
40.84303 -9.15
40.87291 -9.15
40.90454 -9.15
40.936 -9.15
40.96684 -9.15
41.00017 -9.15
41.03165 -9.15
41.06499 -9.15
41.09674 -9.15
41.1286 -9.15
41.16193 -9.15
41.19217 -9.15
41.22124 -9.15
41.25017 -9.15
41.28137 -9.15
41.3147 -9.15
41.34804 -9.15
41.37928 -9.15
41.41156 -9.15
41.44277 -9.15
41.4761 -9.15
41.50827 -9.15
41.54161 -9.15
41.57402 -9.15
41.60504 -9.15
41.63837 -9.15
41.66758 -9.15
41.69775 -9.15
41.7293 -9.15
41.76234 -9.15
41.79568 -9.15
41.82901 -9.15
41.85888 -9.15
41.89024 -9.15
41.92357 -9.15
41.95691 -9.15
41.98973 -9.15
42.02296 -9.15
42.0563 -9.15
42.0868 -9.15
42.12014 -9.15
42.15347 -9.15
42.18488 -9.15
42.21367 -9.15
42.24502 -9.15
42.27835 -9.15
42.30862 -9.15
42.34069 -9.15
42.37402 -9.15
42.40379 -9.15
42.43712 -9.15
42.46645 -9.15
42.49607 -9.15
42.52919 -9.15
42.56154 -9.15
42.59487 -9.15
42.62713 -9.15
42.65736 -9.15
42.68611 -9.15
42.71606 -9.15
42.7494 -9.15
42.78153 -9.15
42.81236 -9.15
42.84259 -9.15
42.87315 -9.15
42.90648 -9.15
42.93723 -9.15
42.96958 -9.15
42.99995 -9.15
43.03045 -9.15
43.06378 -9.15
43.09711 -9.15
43.13045 -9.15
43.16378 -9.15
43.19518 -9.15
43.22851 -9.15
43.2612 -9.15
43.29397 -9.15
43.32337 -9.15
43.35519 -9.15
43.38853 -9.15
43.42186 -9.15
43.45209 -9.15
43.48434 -9.15
43.51767 -9.15
43.55101 -9.15
43.58223 -9.15
43.61185 -9.15
43.64282 -9.15
43.67616 -9.15
43.70949 -9.15
43.74258 -9.15
43.77352 -9.15
43.80405 -9.15
43.83447 -9.15
43.8678 -9.15
43.89675 -9.15
43.92834 -9.15
43.96168 -9.15
43.99501 -9.15
44.02834 -9.15
44.05907 -9.15
44.0924 -9.15
44.12573 -9.15
44.15604 -9.15
44.18937 -9.15
44.21968 -9.15
44.2516 -9.15
44.28326 -9.15
44.31322 -9.15
44.34655 -9.15
44.37988 -9.15
44.40972 -9.15
44.44305 -9.15
44.4753 -9.15
44.50864 -9.15
44.54137 -9.15
44.57295 -9.15
44.60628 -9.15
44.63961 -9.15
44.67295 -9.15
44.70252 -9.15
44.73209 -9.15
44.76543 -9.15
44.7972 -9.15
44.83053 -9.15
44.85946 -9.15
44.88807 -9.15
44.9214 -9.15
44.95473 -9.15
44.98807 -9.15
45.01853 -9.15
45.05016 -9.15
45.0835 -9.15
45.11589 -9.15
45.14923 -9.15
45.18256 -9.15
45.21295 -9.15
45.24275 -9.15
45.27259 -9.15
45.30593 -9.15
45.33758 -9.15
45.36761 -9.15
45.39732 -9.15
45.43065 -9.15
45.46399 -9.15
45.49475 -9.15
45.52809 -9.15
45.5598 -9.15
45.59054 -9.15
45.62387 -9.15
45.65575 -9.15
45.68909 -9.15
45.71837 -9.15
45.74887 -9.15
45.78221 -9.15
45.81478 -9.15
45.84547 -9.15
45.87881 -9.15
45.90826 -9.15
45.9416 -9.15
45.97316 -9.15
46.00345 -9.15
46.03623 -9.15
46.06956 -9.15
46.10289 -9.15
46.13623 -9.15
46.16598 -9.15
46.19528 -9.15
46.22757 -9.15
46.2609 -9.15
46.29091 -9.15
46.32095 -9.15
46.35113 -9.15
46.38446 -9.15
46.4178 -9.15
46.45113 -9.15
46.48132 -9.15
46.51149 -9.15
46.54285 -9.15
46.57619 -9.15
46.60952 -9.15
46.64286 -9.15
46.67338 -9.15
46.70613 -9.15
46.73946 -9.15
46.76833 -9.15
46.80075 -9.15
46.83409 -9.15
46.86445 -9.15
46.89779 -9.15
46.93112 -9.15
46.96445 -9.15
46.99779 -9.15
47.03112 -9.15
47.06445 -9.15
47.09779 -9.15
47.12739 -9.15
47.15677 -9.15
47.18778 -9.15
47.22111 -9.15
47.25142 -9.15
47.28476 -9.15
47.31487 -9.15
47.34531 -9.15
47.37864 -9.15
47.40938 -9.15
47.44139 -9.15
47.47472 -9.15
47.50373 -9.15
47.53706 -9.15
47.56849 -9.15
47.60182 -9.15
47.63515 -9.15
47.66849 -9.15
47.6986 -9.15
47.72833 -9.15
47.7595 -9.15
47.79274 -9.15
47.82607 -9.15
47.85619 -9.15
47.88952 -9.15
47.91867 -9.15
47.94756 -9.15
47.98089 -9.15
48.01277 -9.15
48.04303 -9.15
48.07415 -9.15
48.10748 -9.15
48.14082 -9.15
48.1737 -9.15
48.20704 -9.15
48.23563 -9.15
48.26509 -9.15
48.29842 -9.15
48.3283 -9.15
48.36021 -9.15
48.39353 -9.15
48.42403 -9.15
48.45736 -9.15
48.48845 -9.15
48.52179 -9.15
48.55219 -9.15
48.58552 -9.15
48.61885 -9.15
48.65219 -9.15
48.6814 -9.15
48.71061 -9.15
48.74394 -9.15
48.77728 -9.15
48.8062 -9.15
48.83953 -9.15
48.87287 -9.15
48.90379 -9.15
48.93712 -9.15
48.97045 -9.15
48.99992 -9.15
49.0295 -9.15
49.05944 -9.15
49.09278 -9.15
49.12292 -9.15
49.15326 -9.15
49.18659 -9.15
49.21893 -9.15
49.25226 -9.15
49.28559 -9.15
49.31711 -9.15
49.34681 -9.15
49.37873 -9.15
49.41206 -9.15
49.44333 -9.15
49.47355 -9.15
49.50303 -9.15
49.53276 -9.15
49.56609 -9.15
49.59616 -9.15
49.62949 -9.15
49.65844 -9.15
49.69177 -9.15
49.72511 -9.15
49.75814 -9.15
49.79148 -9.15
49.82272 -9.15
49.85606 -9.15
49.88939 -9.15
49.92273 -9.15
49.95224 -9.15
49.98262 -9.15
50.01448 -9.15
50.04781 -9.15
50.07951 -9.15
50.11021 -9.15
50.14355 -9.15
50.17373 -9.15
50.20706 -9.15
50.24039 -9.15
50.27024 -9.15
50.30043 -9.15
50.33376 -9.15
50.3671 -9.15
50.40043 -9.15
50.43377 -9.15
50.46424 -9.15
50.49504 -9.15
50.52838 -9.15
50.55986 -9.15
50.59319 -9.15
50.62308 -9.15
50.65642 -9.15
50.68975 -9.15
50.71938 -9.15
50.75271 -9.15
50.78604 -9.15
50.81937 -9.15
50.85271 -9.15
50.88604 -9.15
50.91475 -9.15
50.94392 -9.15
50.97276 -9.15
51.00609 -9.15
51.03644 -9.15
51.06821 -9.15
51.09848 -9.15
51.13181 -9.15
51.16514 -9.15
51.1956 -9.15
51.22893 -9.15
51.26226 -9.15
51.2956 -9.15
51.32893 -9.15
51.36226 -9.15
51.39251 -9.15
51.42397 -9.15
51.45366 -9.15
51.48699 -9.15
51.51691 -9.15
51.54887 -9.15
51.58198 -9.15
51.61337 -9.15
51.6467 -9.15
51.68003 -9.15
51.70945 -9.15
51.73992 -9.15
51.77063 -9.15
51.80396 -9.15
51.8373 -9.15
51.86943 -9.15
51.89992 -9.15
51.93028 -9.15
51.96362 -9.15
51.99638 -9.15
52.02829 -9.15
52.05981 -9.15
52.09035 -9.15
52.12369 -9.15
52.15289 -9.15
52.18234 -9.15
52.21567 -9.15
52.2447 -9.15
52.27803 -9.15
52.3085 -9.15
52.33766 -9.15
52.36907 -9.15
52.40049 -9.15
52.43382 -9.15
52.46655 -9.15
52.49688 -9.15
52.52852 -9.15
52.55829 -9.15
52.59162 -9.15
52.62436 -9.15
52.65523 -9.15
52.68663 -9.15
52.71989 -9.15
52.75322 -9.15
52.78467 -9.15
52.81468 -9.15
52.84526 -9.15
52.87859 -9.15
52.91193 -9.15
52.94456 -9.15
52.97789 -9.15
53.00684 -9.15
53.03891 -9.15
53.07224 -9.15
53.10226 -9.15
53.13194 -9.15
53.16304 -9.15
53.19516 -9.15
53.22849 -9.15
53.26183 -9.15
53.29291 -9.15
53.32492 -9.15
53.35674 -9.15
53.39008 -9.15
53.4216 -9.15
53.45165 -9.15
53.48498 -9.15
53.51539 -9.15
53.54872 -9.15
53.57904 -9.15
53.61237 -9.15
53.64321 -9.15
53.67289 -9.15
53.70623 -9.15
53.73836 -9.15
53.77169 -9.15
53.80502 -9.15
53.83836 -9.15
53.87169 -9.15
53.90114 -9.15
53.93447 -9.15
53.9678 -9.15
53.99771 -9.15
54.03104 -9.15
54.06076 -9.15
54.09261 -9.15
54.12226 -9.15
54.15398 -9.15
54.18731 -9.15
54.21784 -9.15
54.2478 -9.15
54.28113 -9.15
54.31127 -9.15
54.3446 -9.15
54.37794 -9.15
54.40873 -9.15
54.44071 -9.15
54.47404 -9.15
54.50738 -9.15
54.54071 -9.15
54.57032 -9.15
54.60366 -9.15
54.63322 -9.15
54.66655 -9.15
54.69593 -9.15
54.72534 -9.15
54.75472 -9.15
54.78805 -9.15
54.82138 -9.15
54.85213 -9.15
54.88213 -9.15
54.91251 -9.15
54.94584 -9.15
54.97918 -9.15
55.01251 -9.15
55.04556 -9.15
55.07822 -9.15
55.11156 -9.15
55.14489 -9.15
55.17755 -9.15
55.21088 -9.15
55.24039 -9.15
55.27069 -9.15
55.30403 -9.15
55.33668 -9.15
55.36908 -9.15
55.40098 -9.15
55.43014 -9.15
55.46347 -9.15
55.4934 -9.15
55.52674 -9.15
55.5564 -9.15
55.58334 -9.15
55.61667 -9.15
55.65 -9.15
55.67985 -9.15
55.70997 -9.15
55.74331 -9.15
55.77664 -9.15
55.80576 -9.15
55.83818 -9.15
55.87151 -9.15
55.90181 -9.15
55.93515 -9.15
55.96848 -9.15
55.99863 -8.95
56.02802 -8.95
56.05928 -8.95
56.09261 -8.95
56.12422 -8.7
56.15345 -8.7
56.18663 -8.7
56.21638 -8.7
56.24972 -8.7
56.28305 -8.7
56.31366 -8.7
56.347 -8.7
56.37679 -8.7
56.41013 -8.7
56.44263 -8.7
56.4729 -8.7
56.50351 -8.7
56.53362 -8.7
56.56695 -8.7
56.60028 -8.7
56.63362 -8.7
56.66695 -8.7
56.70028 -8.7
56.73362 -8.7
56.76695 -8.7
56.79831 -8.7
56.82983 -8.7
56.8604 -8.7
56.89373 -8.7
56.92393 -8.7
56.95727 -8.7
56.9872 -8.7
57.0162 -8.7
57.04953 -8.7
57.07917 -8.7
57.10774 -8.7
57.13831 -8.7
57.16859 -8.7
57.20192 -8.7
57.23137 -8.7
57.2647 -8.7
57.2952 -8.7
57.32692 -8.7
57.36025 -8.7
57.39359 -8.7
57.42692 -8.7
57.46025 -8.7
57.49023 -8.5
57.52356 -8.5
57.55367 -8.05
57.58558 -7.4
57.61892 -7.4
57.64933 -6.95
57.68266 -6.1
57.7134 -6.1
57.74228 -5.65
57.77338 -5.2
57.80351 -5.2
57.83685 -5.2
57.8659 -5.2
57.89669 -5.2
57.93002 -5.2
57.96199 -5.2
57.99532 -5.2
58.02605 -5
58.05775 -4.8
58.09108 -4.8
58.12241 -4.8
58.15575 -4.8
58.18908 -4.8
58.22241 -4.8
58.25199 -4.8
58.28508 -4.8
58.31841 -4.8
58.34754 -4.8
58.38087 -4.8
58.4123 -4.8
58.44497 -4.8
58.47831 -4.8
58.51133 -4.8
58.54467 -4.8
58.575 -4.8
58.60503 -4.8
58.63837 -4.8
58.66914 -4.8
58.70043 -4.8
58.73376 -4.8
58.76412 -4.8
58.79745 -4.8
58.83078 -4.8
58.86412 -4.8
58.89668 -4.8
58.92974 -4.8
58.96307 -4.8
58.99524 -4.8
59.02572 -4.8
59.056 -4.8
59.08604 -4.8
59.11937 -4.8
59.1527 -4.8
59.18224 -4.8
59.2097 -4.8
59.23624 -4.8
59.26958 -4.8
59.30291 -4.8
59.33434 -4.8
59.36673 -4.8
59.39956 -4.8
59.43289 -4.8
59.46265 -4.8
59.49386 -4.8
59.52719 -4.8
59.56053 -4.8
59.59386 -4.8
59.62223 -4.8
59.65034 -4.8
59.68367 -4.8
59.717 -4.8
59.75034 -4.8
59.78029 -4.8
59.81363 -4.8
59.84235 -4.8
59.87181 -4.8
59.90514 -4.8
59.93848 -4.8
59.97147 -4.8
60.00349 -4.8
60.03413 -4.8
60.06746 -4.8
60.09773 -4.8
60.13107 -4.8
60.16395 -4.8
60.19728 -4.8
60.23061 -4.8
60.26234 -4.8
60.29321 -4.8
60.32319 -5
60.35526 -5
60.38859 -5
60.42087 -5
60.45102 -5
60.48435 -5
60.51768 -5
60.55102 -5
60.58435 -5
60.6138 -5
60.64396 -5
60.67574 -5
60.70908 -5
60.7411 -5
60.77443 -5
60.80393 -5
60.83727 -5
60.8706 -5
60.90355 -5
60.9362 -5
60.96721 -5
61.00055 -5
61.03388 -5
61.06372 -5
61.09705 -5
61.1283 -5
61.16164 -5
61.19497 -5
61.22562 -5
61.25887 -5
61.2898 -5
61.32314 -5
61.35647 -5
61.3898 -5
61.42313 -5
61.45647 -5
61.48941 -5
61.52274 -5
61.55215 -5.2
61.58305 -5.2
61.61638 -6.1
61.64971 -6.75
61.68304 -7.6
61.71316 -7.6
61.74419 -8.05
61.77752 -8.5
61.80807 -8.5
61.84141 -8.7
61.87224 -8.7
61.90311 -8.7
61.93644 -8.7
61.96692 -8.7
62.00026 -8.7
62.03107 -8.7
62.06339 -8.7
62.0947 -8.7
62.12592 -8.7
62.15926 -8.7
62.18963 -8.7
62.22027 -8.7
62.25012 -8.7
62.27957 -8.7
62.31291 -8.7
62.34623 -8.7
62.37556 -8.7
62.40889 -8.7
62.44028 -8.7
62.47361 -8.7
62.50465 -8.7
62.53579 -8.7
62.56912 -8.7
62.60246 -8.7
62.63579 -8.7
62.66516 -8.7
62.69849 -8.7
62.72801 -8.7
62.75945 -8.7
62.79278 -8.7
62.82308 -8.7
62.85388 -8.7
62.88567 -8.7
62.919 -8.7
62.95234 -8.7
62.98567 -8.7
63.01743 -8.7
63.05076 -8.7
63.0841 -8.7
63.11743 -8.7
63.15076 -8.7
63.18057 -8.7
63.21125 -8.7
63.24131 -8.7
63.27464 -8.7
63.30797 -8.7
63.33756 -8.7
63.3709 -8.7
63.40212 -8.7
63.43546 -8.7
63.46879 -8.7
63.50212 -8.7
63.53431 -8.7
63.56463 -8.7
63.59797 -8.7
63.62989 -8.7
63.66322 -8.7
63.69548 -8.7
63.72847 -8.7
63.7618 -8.7
63.79513 -8.7
63.82846 -8.7
63.85815 -8.7
63.88871 -8.7
63.92205 -8.7
63.95302 -8.7
63.98333 -8.7
64.01361 -8.7
64.04377 -8.7
64.0771 -8.7
64.11044 -8.7
64.14013 -8.7
64.17346 -8.7
64.20679 -8.7
64.24013 -8.7
64.27346 -8.7
64.30278 -8.7
64.33282 -8.7
64.36616 -8.7
64.39949 -8.7
64.42931 -8.7
64.45919 -8.7
64.48836 -8.7
64.51893 -8.7
64.55226 -8.7
64.58559 -8.7
64.61893 -8.7
64.64973 -8.7
64.68288 -8.7
64.71622 -8.7
64.74793 -8.7
64.77679 -8.7
64.80598 -8.7
64.83932 -8.7
64.87265 -8.7
64.90321 -8.7
64.93346 -8.7
64.96348 -8.7
64.99681 -8.7
65.03014 -8.7
65.05969 -8.7
65.09303 -8.7
65.12636 -8.7
65.15898 -8.7
65.19231 -8.7
65.22467 -8.7
65.2555 -8.7
65.28515 -8.7
65.31471 -8.7
65.34805 -8.7
65.37811 -8.7
65.41145 -8.7
65.44124 -8.7
65.47457 -8.7
65.5079 -8.7
65.53922 -8.7
65.5694 -8.7
65.60158 -8.7
65.63492 -8.7
65.66825 -8.7
65.70158 -8.7
65.73492 -8.7
65.76825 -8.7
65.80158 -8.7
65.83319 -8.7
65.86256 -8.7
65.8923 -8.7
65.92337 -8.7
65.95671 -8.7
65.98765 -8.7
66.0196 -8.7
66.05293 -8.7
66.08403 -8.7
66.11736 -8.7
66.1507 -8.7
66.17908 -8.7
66.20976 -8.7
66.24117 -8.7
66.27451 -8.7
66.30581 -8.7
66.33914 -8.7
66.37247 -8.7
66.40392 -8.7
66.43726 -8.7
66.46759 -8.7
66.50092 -8.7
66.53311 -8.7
66.5631 -8.7
66.59644 -8.7
66.62611 -8.7
66.65944 -8.7
66.68993 -8.7
66.72041 -8.7
66.75374 -8.7
66.78368 -8.7
66.81351 -8.7
66.84684 -8.7
66.87724 -8.7
66.91057 -8.7
66.93999 -8.7
66.9692 -8.7
67.00168 -8.7
67.03156 -8.7
67.0649 -8.7
67.09823 -8.7
67.13156 -8.7
67.16241 -8.7
67.19574 -8.7
67.22907 -8.7
67.26019 -8.7
67.29353 -8.7
67.32686 -8.7
67.35879 -8.7
67.39212 -8.7
67.42452 -8.7
67.45646 -8.7
67.48804 -8.7
67.52028 -8.7
67.55361 -8.7
67.58534 -8.7
67.61868 -8.7
67.65201 -8.7
67.68273 -8.7
67.71606 -8.7
67.7494 -8.7
67.77847 -8.7
67.80871 -8.7
67.83867 -8.7
67.872 -8.7
67.90217 -8.7
67.9355 -8.7
67.96547 -8.7
67.99881 -8.7
68.03214 -8.7
68.06214 -8.7
68.0943 -8.7
68.12551 -8.7
68.15552 -8.7
68.18885 -8.7
68.22218 -8.7
68.25423 -8.7
68.28644 -8.7
68.31977 -8.7
68.3531 -8.5
68.38644 -8.5
68.41589 -8.5
68.44923 -8.5
68.47845 -8.5
68.51178 -8.5
68.54391 -8.5
68.57724 -8.5
68.61057 -8.5
68.64391 -8.5
68.67724 -8.5
68.70924 -8.5
68.74257 -8.5
68.77341 -8.5
68.80631 -8.5
68.83965 -8.5
68.87298 -8.5
68.90392 -8.5
68.93601 -8.5
68.96685 -8.5
69.00018 -8.5
69.03352 -8.5
69.06568 -8.5
69.09703 -8.5
69.12772 -8.5
69.16106 -8.5
69.1944 -8.5
69.22396 -8.5
69.25729 -8.5
69.29012 -8.5
69.32345 -8.5
69.35606 -8.5
69.38839 -8.5
69.42102 -8.5
69.45374 -8.5
69.48708 -8.5
69.52041 -8.5
69.55356 -8.5
69.58266 -8.5
69.616 -8.5
69.64934 -8.5
69.68042 -8.5
69.71313 -8.5
69.74647 -8.5
69.7798 -8.5
69.81313 -8.5
69.84393 -8.5
69.87417 -8.5
69.90466 -8.5
69.93799 -8.5
69.97132 -8.5
70.00124 -8.5
70.03457 -8.5
70.06485 -8.5
70.09818 -8.3
70.13152 -8.05
70.16347 -8.05
70.1968 -7.85
70.22894 -7.6
70.25851 -7.6
70.29184 -7.6
70.32457 -7.6
70.35548 -7.6
70.38696 -7.6
70.41775 -7.6
70.45108 -7.6
70.48441 -7.6
70.51674 -7.6
70.54871 -7.6
70.57821 -7.6
70.61154 -7.6
70.64145 -7.6
70.67114 -7.6
70.70201 -7.6
70.73534 -7.6
70.76868 -7.6
70.79845 -7.6
70.82818 -7.6
70.86044 -7.6
70.89008 -7.6
70.92342 -7.6
70.95276 -7.6
70.98609 -7.6
71.01556 -7.6
71.04594 -7.6
71.07928 -7.6
71.10963 -7.6
71.13872 -7.6
71.16908 -7.6
71.19904 -7.6
71.23237 -7.6
71.26258 -7.6
71.29227 -7.6
71.32446 -7.6
71.35668 -7.6
71.39001 -7.6
71.42126 -7.6
71.45459 -7.6
71.48482 -7.6
71.51727 -7.6
71.55061 -7.6
71.58394 -7.6
71.61727 -7.6
71.64801 -7.6
71.68104 -7.6
71.71437 -7.6
71.74408 -7.6
71.77242 -7.6
71.8038 -7.6
71.83714 -7.6
71.87047 -7.6
71.90114 -7.6
71.93193 -7.6
71.96461 -7.6
71.99729 -7.6
72.03062 -7.6
72.06088 -7.6
72.09422 -7.6
72.1251 -7.6
72.15498 -7.6
72.18831 -7.6
72.21925 -7.6
72.2486 -7.6
72.28152 -7.6
72.31485 -7.6
72.34818 -7.6
72.38033 -7.6
72.40983 -7.6
72.44316 -7.6
72.47524 -7.6
72.50858 -7.6
72.53954 -7.6
72.5693 -7.6
72.60263 -7.6
72.63283 -7.6
72.66616 -7.6
72.69681 -7.6
72.72785 -7.6
72.75723 -7.6
72.78986 -7.6
72.8232 -7.6
72.85459 -7.6
72.88792 -7.6
72.92126 -7.6
72.95085 -7.6
72.98418 -7.6
73.01434 -7.6
73.04768 -7.6
73.07725 -7.6
73.10789 -7.6
73.14123 -7.6
73.1711 -7.6
73.20049 -7.6
73.23171 -7.6
73.26201 -7.6
73.29534 -7.6
73.32867 -7.6
73.3587 -7.6
73.39203 -7.6
73.42352 -7.6
73.45685 -7.6
73.48853 -7.6
73.52187 -7.6
73.55521 -7.6
73.58665 -7.6
73.62 -7.6
73.65062 -7.6
73.68395 -7.6
73.71371 -7.6
73.7467 -7.6
73.78004 -7.6
73.81008 -7.6
73.84129 -7.6
73.87368 -7.6
73.9049 -7.6
73.93823 -7.6
73.96746 -7.6
73.99747 -7.6
74.02814 -7.6
74.05733 -7.6
74.09066 -7.6
74.124 -7.6
74.157 -7.6
74.19033 -7.6
74.21985 -7.6
74.25318 -7.6
74.28335 -7.6
74.31319 -7.6
74.34653 -7.6
74.37669 -7.6
74.41003 -7.6
74.44337 -7.6
74.47607 -7.6
74.50792 -7.6
74.53881 -7.6
74.57214 -7.6
74.60548 -7.6
74.63881 -7.6
74.67023 -7.6
74.70012 -7.6
74.73345 -7.6
74.76674 -7.6
74.79572 -7.6
74.82905 -7.6
74.86238 -7.6
74.89571 -7.6
74.92741 -7.6
74.96026 -7.6
74.99336 -7.6
75.02316 -7.6
75.0565 -7.6
75.08983 -7.6
75.12316 -7.6
75.15454 -7.6
75.18769 -7.6
75.22102 -7.6
75.25422 -7.6
75.28503 -7.6
75.31836 -7.6
75.34837 -7.6
75.3817 -7.6
75.41115 -7.6
75.44448 -7.6
75.47781 -7.6
75.51115 -7.6
75.54448 -7.6
75.57781 -7.6
75.61115 -7.6
75.64207 -7.6
75.67195 -7.6
75.70528 -7.6
75.73833 -7.6
75.76809 -7.6
75.79951 -7.6
75.82935 -7.6
75.86269 -7.6
75.89151 -7.6
75.92096 -7.6
75.95429 -7.6
75.98763 -7.6
76.02096 -7.6
76.05128 -7.6
76.08461 -7.6
76.11794 -7.6
76.14902 -7.6
76.18235 -7.6
76.21568 -7.6
76.2481 -7.6
76.27993 -7.6
76.31204 -7.6
76.34538 -7.6
76.37723 -7.6
76.41035 -7.6
76.43974 -7.6
76.47136 -7.6
76.50469 -7.6
76.53465 -7.6
76.56425 -7.6
76.59651 -7.6
76.62959 -7.6
76.66292 -7.6
76.69368 -7.6
76.72698 -7.6
76.75951 -7.6
76.78974 -7.6
76.82307 -7.6
76.85398 -7.6
76.88443 -7.6
76.91591 -7.6
76.94924 -7.6
76.98257 -7.6
77.01218 -7.6
77.04552 -7.6
77.07885 -7.6
77.11218 -7.6
77.14552 -7.6
77.17708 -7.6
77.21041 -7.6
77.24174 -7.6
77.27219 -7.6
77.30553 -7.6
77.33794 -7.6
77.36716 -7.6
77.39721 -7.6
77.42645 -7.6
77.45978 -7.6
77.49311 -7.6
77.52222 -7.6
77.5533 -7.6
77.58267 -7.6
77.616 -7.6
77.64889 -7.6
77.68222 -7.6
77.71141 -7.6
77.74153 -7.6
77.77486 -7.6
77.80453 -7.6
77.83315 -7.6
77.86327 -7.6
77.89344 -7.6
77.92677 -7.6
77.95908 -7.6
77.99242 -7.6
78.02575 -7.6
78.05908 -7.6
78.09241 -7.6
78.12231 -7.6
78.15458 -7.6
78.18687 -7.6
78.22021 -7.6
78.25354 -7.6
78.28233 -7.6
78.31181 -7.6
78.34514 -7.6
78.37527 -7.6
78.40861 -7.6
78.4415 -7.6
78.47348 -7.6
78.50681 -7.6
78.53876 -7.6
78.57209 -7.6
78.60387 -7.6
78.63624 -7.6
78.66628 -7.6
78.69871 -7.6
78.73204 -7.6
78.7618 -7.6
78.7909 -7.6
78.82321 -7.6
78.85247 -7.6
78.8858 -7.6
78.91914 -7.6
78.94775 -7.6
78.98108 -7.6
79.01061 -7.6
79.04395 -7.6
79.07349 -7.6
79.10624 -7.6
79.13957 -7.6
79.17092 -7.6
79.20425 -7.6
79.23336 -7.6
79.26669 -7.6
79.29675 -7.6
79.32677 -7.6
79.36012 -7.6
79.38971 -7.6
79.42121 -7.6
79.45257 -7.6
79.48554 -7.6
79.51888 -7.6
79.55221 -7.6
79.58413 -7.6
79.61588 -7.6
79.64573 -7.6
79.67906 -7.6
79.70912 -7.6
79.74245 -7.6
79.77267 -7.6
79.80341 -7.6
79.83675 -7.6
79.87008 -7.6
79.89953 -7.6
79.93226 -7.6
79.96297 -7.6
79.99631 -7.6
80.02964 -7.6
80.06017 -7.6
80.09351 -7.6
80.12518 -7.6
80.15851 -7.6
80.19184 -7.6
80.2214 -7.6
80.25172 -7.6
80.28505 -7.6
80.31838 -7.6
80.3499 -7.6
80.38011 -7.6
80.41029 -7.6
80.44362 -7.6
80.47695 -7.6
80.51028 -7.6
80.53964 -7.6
80.5694 -7.6
80.60114 -7.6
80.63448 -7.6
80.66676 -7.6
80.70009 -7.6
80.73342 -7.6
80.76254 -7.6
80.79587 -7.6
80.82759 -7.6
80.85696 -7.6
80.88761 -7.6
80.91776 -7.6
80.9511 -7.6
80.98145 -7.6
81.01479 -7.6
81.04434 -7.6
81.07486 -7.6
81.10819 -7.6
81.14153 -7.6
81.17486 -7.6
81.20574 -7.6
81.23546 -7.6
81.26879 -7.6
81.30212 -7.6
81.33546 -7.6
81.36501 -7.6
81.39804 -7.6
81.43137 -7.6
81.46471 -7.6
81.49767 -7.6
81.52875 -7.6
81.55888 -7.6
81.59221 -7.6
81.62465 -7.6
81.65798 -7.6
81.69131 -7.6
81.72407 -7.6
81.7574 -7.6
81.78935 -7.6
81.8198 -7.6
81.85026 -7.6
81.88235 -7.6
81.91568 -7.6
81.94761 -7.6
81.98094 -7.6
82.01373 -7.6
82.04707 -7.6
82.0804 -7.6
82.10976 -7.6
82.1401 -7.6
82.17037 -7.6
82.2037 -7.6
82.23705 -7.6
82.27038 -7.6
82.30118 -7.6
82.33142 -7.6
82.36221 -7.6
82.39555 -7.6
82.42889 -7.6
82.45863 -7.6
82.49059 -7.6
82.52392 -7.6
82.55725 -7.6
82.58743 -7.6
82.61996 -7.6
82.65329 -7.6
82.68282 -7.85
82.71615 -8.3
82.7479 -8.3
82.78123 -8.95
82.81104 -9.6
82.84246 -9.6
82.87579 -10
82.90553 -10
82.93887 -10
82.96765 -10
83.00098 -10
83.03432 -10
83.06724 -10
83.09703 -10
83.12681 -10
83.15659 -10
83.18993 -10
83.22326 -10
83.25526 -10.25
83.285 -10.45
83.31545 -10.45
83.34879 -10.7
83.37829 -10.7
83.41003 -10.7
83.4418 -10.7
83.47167 -10.7
83.505 -10.9
83.538 -11.1
83.57101 -11.1
83.60434 -11.75
83.63767 -12.2
83.67101 -12.45
83.70276 -12.45
83.73609 -12.65
83.76943 -12.65
83.80094 -12.65
83.83427 -12.65
83.86761 -12.65
83.89867 -12.65
83.9278 -12.65
83.96113 -12.85
83.99446 -13.1
84.0278 -13.1
84.06026 -13.3
84.09007 -13.3
84.12341 -13.3
84.15675 -13.3
84.18647 -13.3
84.21854 -13.3
84.24779 -13.3
84.27911 -13.3
84.31244 -13.5
84.34562 -14.15
84.37895 -14.6
84.40879 -14.6
84.43981 -14.85
84.47314 -15.05
84.50183 -15.05
84.53213 -15.05
84.56546 -15.05
84.59515 -15.05
84.62848 -15.05
84.66181 -15.05
84.69126 -15.05
84.72116 -15.05
84.75449 -15.05
84.78783 -15.05
84.81969 -15.05
84.85024 -15.05
84.87993 -15.05
84.90958 -15.05
84.94291 -15.05
84.97291 -15.05
85.00624 -15.5
85.03775 -15.5
85.07052 -15.9
85.10385 -16.6
85.13437 -16.6
85.16313 -16.8
85.19647 -17.25
85.22647 -17.25
85.2598 -17.25
85.29034 -17.25
85.32368 -17.25
85.35365 -17.25
85.38699 -17.25
85.42032 -17.45
85.45089 -17.45
85.48383 -17.65
85.51717 -17.65
85.54983 -17.65
85.58316 -17.65
85.61649 -17.65
85.64875 -17.65
85.67842 -17.65
85.70933 -17.65
85.74266 -17.65
85.77197 -17.65
85.8053 -17.65
85.83397 -17.65
85.86537 -17.65
85.89871 -17.65
85.93146 -17.65
85.96252 -17.65
85.99229 -17.65
86.0225 -17.65
86.05583 -17.65
86.08798 -17.65
86.11697 -17.65
86.14729 -17.45
86.17883 -17.45
86.21216 -17.45
86.24278 -17.25
86.2745 -17.25
86.30413 -17.25
86.33746 -17
86.3708 -17
86.4021 -17
86.43105 -17
86.46129 -17
86.49273 -17
86.52606 -17
86.55661 -17
86.58948 -17
86.62028 -17
86.65361 -17
86.68694 -17
86.71719 -17
86.74831 -17
86.78165 -17
86.81213 -17
86.84547 -16.8
86.87867 -16.35
86.91005 -15.7
86.94338 -15.7
86.97556 -14.85
87.00889 -14.15
87.03996 -14.15
87.071 -13.3
87.10211 -12.45
87.13177 -12.45
87.16511 -11.55
87.19844 -11.1
87.23002 -11.1
87.26335 -10.9
87.29299 -10.9
87.32632 -10.9
87.35966 -10.9
87.393 -10.9
87.42223 -10.9
87.45557 -11.1
87.4889 -11.75
87.51871 -11.75
87.55059 -12.2
87.58392 -12.85
87.61726 -12.85
87.6506 -13.3
87.6831 -13.5
87.71385 -13.5
87.74484 -13.75
87.7747 -13.75
87.80803 -13.75
87.84135 -13.75
87.87228 -13.75
87.90561 -13.75
87.93604 -13.75
87.96938 -13.75
88.00031 -13.75
88.02967 -13.75
88.06281 -13.75
88.09226 -13.75
88.1256 -13.75
88.15602 -13.75
88.18566 -13.75
88.21531 -13.75
88.24511 -13.75
88.27844 -13.75
88.31149 -13.75
88.34135 -13.75
88.37125 -13.75
88.40035 -13.75
88.43369 -13.75
88.46702 -13.75
88.49618 -13.75
88.52808 -13.75
88.55952 -13.75
88.59286 -13.75
88.62583 -13.75
88.65702 -13.75
88.68969 -13.75
88.72134 -13.75
88.75468 -13.75
88.7851 -13.75
88.81554 -13.75
88.84811 -13.75
88.87964 -13.75
88.91297 -13.75
88.94198 -13.75
88.97098 -13.75
89.00238 -13.75
89.03325 -13.75
89.06658 -13.75
89.09624 -13.75
89.12554 -13.75
89.1547 -13.75
89.18803 -13.75
89.22137 -13.75
89.25361 -13.75
89.28448 -13.75
89.31349 -13.75
89.34303 -14.15
89.37637 -14.6
89.4097 -14.85
89.44303 -14.85
89.47528 -15.05
89.50713 -15.05
89.54046 -15.05
89.57073 -15.05
89.60076 -15.05
89.63112 -15.05
89.66143 -15.05
89.69476 -15.05
89.72414 -15.05
89.75362 -15.25
89.7837 -15.25
89.81435 -15.5
89.84769 -15.7
89.87854 -15.7
89.90909 -15.7
89.93899 -15.7
89.97232 -15.7
90.00565 -15.7
90.03801 -15.7
90.07012 -15.7
90.09956 -15.7
90.13152 -15.7
90.16485 -15.7
90.19418 -15.7
90.22752 -15.7
90.25893 -15.5
90.29083 -15.05
90.32417 -15.05
90.35448 -14.85
90.38351 -14.15
90.41684 -14.15
90.44915 -13.5
90.48248 -12.65
90.51244 -12.65
90.54577 -12
90.57486 -10.9
90.606 -10.9
90.63934 -9.6
90.67267 -8.7
90.70539 -8.7
90.73461 -7.85
90.76377 -7.85
90.7971 -7.4
90.82687 -7.2
90.85619 -7.2
90.88589 -7.2
90.91809 -7.2
90.95142 -7.2
90.98476 -7.4
91.0181 -8.3
91.04779 -8.3
91.0799 -9.8
91.11324 -11.75
91.1465 -11.75
91.17609 -13.1
91.20647 -15.05
91.2398 -15.05
91.27313 -16.35
91.30537 -17
91.33462 -17
91.36451 -17.25
91.39785 -17.25
91.43118 -17.25
91.46105 -17.25
91.49319 -17.25
91.52653 -17.25
91.55986 -17.25
91.59319 -17.25
91.62653 -17.25
91.65952 -17.25
91.68896 -17.25
91.71909 -17.25
91.75242 -17.25
91.78281 -17.25
91.81614 -17.25
91.84528 -17.25
91.87567 -17.25
91.909 -17.25
91.94228 -17.25
91.97424 -17.25
92.00367 -17.25
92.03387 -17.25
92.06721 -17.25
92.10054 -17.25
92.13387 -17.25
92.16279 -17.25
92.194 -17.25
92.22733 -17.25
92.25661 -17
92.28596 -17
92.31717 -17
92.34763 -16.8
92.38097 -16.8
92.41431 -16.8
92.44764 -16.8
92.48097 -16.8
92.51431 -16.8
92.54764 -16.8
92.58097 -16.8
92.6143 -16.8
92.64764 -16.6
92.68043 -16.6
92.71376 -16.35
92.7471 -15.9
92.77611 -15.9
92.80944 -15.05
92.84093 -14.15
92.86996 -14.15
92.9033 -13.3
92.93346 -13.3
92.96679 -12.65
92.99906 -12
93.03239 -11.75
93.06573 -11.75
93.09906 -11.55
93.13239 -11.55
93.16306 -11.55
93.19447 -11.55
93.22433 -11.55
93.25493 -11.55
93.28826 -11.55
93.31693 -11.55
93.35027 -11.55
93.38227 -11.55
93.4156 -11.55
93.44894 -11.55
93.48227 -11.55
93.5156 -11.55
93.5459 -11.55
93.57923 -11.55
93.61256 -11.1
93.64348 -10.45
93.67583 -10.45
93.70916 -9.6
93.73808 -7.85
93.77142 -7.85
93.80414 -5
93.8343 -1.7
93.86432 -1.7
93.89765 4.15
93.93098 10.25
93.95984 10.25
93.99317 14.15
94.02517 15.7
94.05614 15.7
94.08947 16.8
94.12007 17
94.1534 17.45
94.18208 17.45
94.21259 18.1
94.24592 18.1
94.27657 19
94.30736 19.65
94.33881 19.65
94.36807 20.95
94.40141 22.5
94.43139 22.5
94.46472 24.2
94.49346 26.65
94.52295 26.65
94.55628 29.9
94.58891 32.95
94.62225 32.95
94.65163 36.45
94.68497 38.85
94.7183 38.85
94.74825 41.5
94.78158 43.9
94.81123 43.9
94.84058 45.85
94.87391 45.85
94.90654 48.9
94.93916 52.6
94.97187 52.6
95.0052 55.25
95.03854 58.95
95.07152 58.95
95.10485 62.25
95.13409 66.4
95.16742 66.4
95.20075 70.95
95.23409 74.05
95.26375 79.05
95.29375 79.05
95.32421 82.35
95.35754 85.15
95.38822 85.15
95.41763 87.55
95.44987 87.55
95.48009 89.75
95.51343 92.15
95.54676 92.15
95.57944 94.55
95.60963 96.1
95.64297 96.1
95.6763 98.7
95.70673 100.7
95.73881 100.7
95.77175 103.1
95.80186 106.15
95.8352 106.15
95.86439 108.1
95.89414 112.5
95.92294 112.5
95.95627 115.55
95.9896 117.7
96.02044 117.7
96.05285 118.6
96.08273 118.35
96.1122 118.35
96.14553 118.35
96.17873 118.35
96.20697 118.35
96.23734 118.8
96.26999 118.8
96.30332 119.7
96.33311 121.65
96.36319 121.65
96.39558 124.5
96.42892 126
96.46225 126.9
96.49557 126.9
96.5289 126.9
96.5601 126.65
96.59168 126.65
96.62502 126.65
96.65835 126.65
96.68757 126.65
96.71893 126.65
96.7496 126.65
96.78294 126.25
96.81308 124.95
96.84605 124.95
96.87856 123.6
96.91 122.5
96.94333 122.5
96.97666 122.3
97.00999 122.75
97.04121 122.75
97.0707 123.85
97.10403 125.8
97.13419 125.8
97.16498 128.2
97.19831 130.8
97.22944 130.8
97.26277 133.45
97.2961 136.5
97.32648 136.5
97.35686 137.6
97.38889 137.8
97.42223 137.8
97.45156 137.6
97.48278 137.6
97.51611 137.6
97.54755 137.4
97.58089 136.7
97.61422 136.05
97.64755 136.05
97.67919 135.4
97.71222 134.75
97.74555 134.75
97.7772 134.3
97.80743 134.1
97.83704 134.1
97.86921 134.1
97.90254 134.1
97.93118 134.1
97.96114 134.1
97.99036 134.1
98.02036 134.1
98.05369 134.1
98.08702 134.1
98.12036 134.1
98.15369 134.1
98.18703 134.1
98.22036 134.1
98.25369 134.1
98.28319 134.1
98.31543 134.1
98.3482 134.1
98.38153 134.1
98.41486 134.1
98.44471 134.1
98.47804 134.1
98.50931 134.1
98.54265 133.9
98.57598 133.65
98.60931 132.8
98.64265 132.8
98.67598 131.7
98.70539 130.4
98.73559 130.4
98.76732 129.3
98.80065 128.4
98.83398 127.35
98.86322 127.35
98.89277 126.65
98.92173 126.65
98.95065 126.25
98.98399 125.8
99.01732 125.8
99.04684 125.8
99.07939 125.8
99.11218 125.8
99.14552 125.8
99.17885 125.8
99.20826 125.8
99.24159 125.8
99.27191 125.8
99.30524 125.8
99.33574 125.35
99.36907 123.6
99.3988 123.6
99.42974 122.1
99.46307 122.1
99.49286 119.9
99.52215 117.5
99.55548 117.5
99.58577 115.3
99.6191 111.15
99.65244 111.15
99.68182 106.8
99.7131 102
99.74548 102
99.77881 100
99.81214 100.45
99.84248 100.45
99.87582 101.1
99.90484 101.35
99.93818 101.35
99.97151 101.35
100.0005 101.35
100.0292 101.35
100.0603 100.9
100.0937 100.25
100.1222 100.25
100.1529 99.35
100.183 99.35
100.2122 98.95
100.2455 97.85
100.2777 97.85
100.3078 95.2
100.3377 89.55
100.3678 89.55
100.4011 86.05
100.4306 86.05
100.4628 82.35
100.4909 80.15
100.5235 80.15
100.5568 78.4
100.5859 77.3
100.6193 77.3
100.6515 76.85
100.6822 77.1
100.7156 77.1
100.7489 77.95
100.7797 78.85
100.8088 78.85
100.8395 79.05
100.8729 79.05
100.9062 79.05
100.9376 79.05
100.9664 79.05
100.9989 79.05
101.0322 79.05
101.0634 79.05
101.0964 79.05
101.1298 79.05
101.163 79.05
101.1964 79.05
101.2255 79.05
101.2555 79.05
101.2868 78.6
101.3201 76.85
101.3535 74.05
101.3861 74.05
101.4161 68.8
101.4446 68.8
101.4755 64.65
101.5089 60.25
101.5374 60.25
101.5671 58.75
101.5994 58.5
101.6328 58.5
101.6661 58.5
101.6952 57.85
101.7233 57.85
101.7554 57.45
101.7867 57.45
101.8201 57.65
101.8534 57.65
101.8867 57.65
101.9167 57.65
101.9459 57.65
101.9793 57.2
102.011 57.2
102.0403 55.9
102.0737 52.4
102.107 52.4
102.1403 47.6
102.1723 40.6
102.2039 40.6
102.2372 34.05
102.2705 27.5
102.3039 23.8
102.3351 23.8
102.3685 20.3
102.4 17.25
102.4298 17.25
102.4632 15.7
102.4965 15.25
102.5269 15.25
102.5603 15.5
102.5893 15.5
102.6227 16.8
102.6519 18.3
102.6818 18.3
102.7101 19.85
102.7409 20.75
102.7743 20.75
102.8076 20.95
102.8393 20.95
102.8707 20.95
102.904 20.3
102.9373 19.2
102.9681 19.2
102.999 17.9
103.0304 17.9
103.0637 17.45
103.097 17.45
103.1304 17.45
103.1637 17.45
103.197 17.45
103.2288 17.25
103.2621 17.25
103.2923 17.25
103.322 17.25
103.3506 17.25
103.3794 17.25
103.4128 16.8
103.4412 16.8
103.4708 15.9
103.5011 15.9
103.5309 14.4
103.5642 13.75
103.5975 13.75
103.6287 14.15
103.6612 14.4
103.6926 14.4
103.7259 14.85
103.7593 15.9
103.7906 15.9
103.8223 17.25
103.8556 18.55
103.889 18.55
103.9176 19.65
103.9509 20.05
103.9812 20.05
104.0097 20.3
104.0431 20.3
104.0739 20.3
104.1059 20.3
104.1355 20.3
104.1653 20.3
104.1987 20.3
104.2299 20.3
104.2633 20.3
104.2951 20.3
104.3254 20.3
104.3587 20.3
104.3921 20.5
104.4227 20.5
104.4528 20.5
104.484 20.5
104.5174 20.5
104.5468 20.5
104.5757 20.5
104.607 20.5
104.6367 20.5
104.6701 20.5
104.6996 20.5
104.7329 20.5
104.7626 20.5
104.7959 20.5
104.8293 19.65
104.8613 19.65
104.8946 18.55
104.9233 16.8
104.9533 16.8
104.9866 14.4
105.0187 11.75
105.0518 11.75
105.0807 10.25
105.114 8.95
105.1473 8.95
105.1807 7.6
105.2123 6.95
105.2425 6.95
105.2724 6.3
105.3057 6.3
105.3367 6.3
105.3672 6.1
105.3975 6.1
105.4309 6.1
105.4642 6.3
105.4975 6.75
105.527 6.75
105.5558 7.4
105.5858 7.4
105.6192 7.85
105.6496 8.05
105.6798 8.05
105.7084 8.3
105.7383 8.7
105.7717 8.7
105.8006 8.95
105.8293 8.95
105.8626 9.15
105.8931 9.15
105.9265 9.15
105.9568 9.15
105.9866 9.15
106.0163 9.15
106.0484 8.7
106.0817 7.85
106.1119 7.85
106.1452 6.95
106.1786 5.85
106.2074 5.85
106.2407 5
106.2694 5
106.3027 4.15
106.3319 3.7
106.3631 3.7
106.3964 2.8
106.4261 2.6
106.457 2.6
106.4903 2.4
106.521 2.15
106.5543 2.15
106.5827 2.15
106.6123 2.15
106.6405 2.15
106.6729 2.15
106.7062 2.15
106.7349 2.15
106.7649 2.15
106.7935 2.15
106.8217 2.15
106.855 1.95
106.8871 1.95
106.9176 1.7
106.9509 0.65
106.9843 0.65
107.0147 -0.85
107.0472 -1.7
107.0764 -1.7
107.1067 -3.45
107.14 -4.8
107.1733 -4.8
107.2066 -6.55
107.2381 -8.5
107.2698 -8.5
107.3031 -10.45
107.3321 -11.75
107.3613 -11.75
107.3904 -13.1
107.4197 -13.1
107.453 -14.15
107.4859 -15.9
107.516 -15.9
107.5494 -17.25
107.5815 -18.55
107.6149 -20.95
107.6442 -20.95
107.6758 -22.5
107.705 -22.5
107.736 -24.2
107.7694 -25.95
107.8027 -25.95
107.8319 -27.5
107.862 -28.15
107.8938 -28.15
107.9271 -28.6
107.9592 -29.05
107.99 -29.05
108.0233 -29.25
108.0536 -29.25
108.087 -29.25
108.1202 -29.45
108.1492 -29.45
108.179 -29.45
108.2099 -29.7
108.2433 -29.7
108.2727 -29.7
108.306 -29.7
108.3351 -29.7
108.366 -29.7
108.3994 -29.7
108.428 -29.7
108.4575 -29.7
108.4896 -29.9
108.519 -29.9
108.5523 -29.9
108.5818 -29.9
108.6144 -29.9
108.6477 -29.9
108.6771 -29.9
108.7105 -29.9
108.74 -29.9
108.7703 -29.9
108.798 -29.9
108.8302 -29.9
108.8635 -29.9
108.8946 -29.9
108.9262 -29.9
108.9574 -29.9
108.9907 -29.9
109.024 -30.1
109.0535 -30.1
109.0825 -30.8
109.112 -30.8
109.1411 -31.2
109.1745 -31.45
109.2036 -31.45
109.2344 -31.45
109.2625 -31.45
109.2915 -31.45
109.3249 -30.8
109.3543 -30.8
109.3839 -29.25
109.4172 -27.05
109.4482 -27.05
109.4815 -24
109.5113 -21.15
109.5446 -21.15
109.578 -17.45
109.6097 -13.75
109.643 -13.75
109.6763 -11.55
109.7072 -9.6
109.7381 -9.6
109.7707 -7.6
109.8041 -6.55
109.8332 -6.55
109.8665 -5.2
109.8965 -3.7
109.926 -3.7
109.9593 -2.8
109.9927 -2.15
110.0216 -2.15
110.0547 -2.15
110.0854 -2.15
110.1187 -2.15
110.149 -2.15
110.1785 -2.15
110.2089 -2.15
110.238 -2.15
110.2713 -3.05
110.3027 -3.05
110.3319 -4.15
110.3612 -4.15
110.3908 -4.8
110.4241 -4.8
110.4541 -4.8
110.4823 -4.8
110.5127 -4.8
110.5431 -4.55
110.5764 -4.15
110.6097 -4.15
110.6407 -3.7
110.6699 -2.8
110.7032 -2.8
110.7366 -1.95
110.7675 -0.65
110.7963 -0.65
110.8256 1.05
110.854 3.05
110.8874 3.05
110.9165 4.8
110.9451 4.8
110.9785 5.85
111.0071 6.75
111.0404 6.75
111.0736 6.95
111.1036 6.95
111.135 6.95
111.1642 6.95
111.1975 6.95
111.2302 6.95
111.2635 6.95
111.2953 6.95
111.3239 6.95
111.3572 6.95
111.3858 6.95
111.4157 6.95
111.449 6.75
111.4803 6.75
111.5137 6.55
111.5454 6.3
111.5754 6.1
111.6039 6.1
111.6331 6.1
111.6664 6.1
111.6961 6.1
111.7257 6.3
111.7545 6.3
111.7854 6.55
111.8187 6.75
111.8497 6.75
111.883 6.95
111.9164 6.95
111.9466 6.95
111.98 6.95
112.0086 6.95
112.0419 7.2
112.0714 7.2
112.1011 7.2
112.1345 7.4
112.1621 7.4
112.1907 7.4
112.2187 7.4
112.252 7.4
112.2854 7.4
112.3164 7.4
112.3458 7.6
112.3757 7.6
112.4057 7.6
112.439 7.6
112.4723 7.85
112.5056 8.05
112.5351 8.05
112.5652 8.3
112.5985 8.5
112.6272 8.5
112.6561 8.5
112.6851 8.5
112.7141 8.5
112.7474 8.5
112.7775 8.5
112.8091 8.5
112.8405 8.5
112.8715 8.5
112.9048 8.7
112.9349 8.7
112.9682 8.7
113.0016 8.7
113.033 8.7
113.0663 8.7
113.0965 8.7
113.1296 8.7
113.1586 8.7
113.1872 8.95
113.2205 8.95
113.2497 9.15
113.2792 9.15
113.3111 9.15
113.3428 9.15
113.3762 9.15
113.4095 9.15
113.4428 9.15
113.4747 9.15
113.5053 9.15
113.5387 9.15
113.572 9.15
113.6016 9.15
113.6303 9.15
113.6637 9.15
113.697 9.15
113.7303 9.15
113.7581 9.15
113.7914 9.15
113.8236 9.15
113.8569 9.15
113.8903 9.15
113.9206 9.15
113.9486 9.15
113.9791 9.15
114.0124 9.15
114.0421 9.15
114.0747 9.15
114.1069 9.15
114.1351 9.15
114.1685 9.15
114.1983 9.15
114.2276 9.15
114.2598 9.15
114.2889 9.15
114.3223 9.15
114.3521 9.15
114.3822 9.15
114.412 9.15
114.4452 9.15
114.4785 9.15
114.5071 9.15
114.5405 8.95
114.5719 8.95
114.6001 8.3
114.6335 7.85
114.6641 7.85
114.6935 7.6
114.7231 7.6
114.753 7.6
114.7863 7.6
114.8149 7.6
114.845 7.6
114.8736 7.6
114.9042 7.4
114.9375 7.2
114.9708 7.2
115.0016 6.95
115.0315 6.55
115.0624 6.55
115.0958 6.3
115.1291 6.1
115.1575 6.1
115.1898 5.85
115.2197 5.85
115.253 5.85
115.2863 5.65
115.3197 5.45
115.353 5.45
115.3843 5
115.4176 4.8
115.4509 4.8
115.4843 4.55
115.5139 4.35
115.5453 4.35
115.5786 4.35
115.6119 4.35
115.6417 4.35
115.6712 4.35
115.7001 4.35
115.7335 4.35
115.7639 4.35
115.7952 4.35
115.8245 4.35
115.8549 4.35
115.8883 4.35
115.9182 4.35
115.9501 4.35
115.9799 4.35
116.0094 4.35
116.0427 4.35
116.076 4.35
116.1039 4.35
116.1329 4.35
116.163 4.35
116.1963 4.35
116.2278 4.35
116.2612 4.35
116.2892 4.35
116.3184 4.35
116.3517 4.35
116.3813 4.35
116.4131 4.35
116.4419 4.35
116.473 4.35
116.5064 4.35
116.5366 4.35
116.5678 4.35
116.6006 4.35
116.6329 4.35
116.6663 4.35
116.6958 4.35
116.726 4.35
116.7553 4.35
116.7868 4.35
116.8202 4.35
116.8535 4.35
116.8827 4.35
116.9161 4.35
116.9494 4.35
116.9827 4.35
117.0158 4.35
117.0448 4.35
117.0781 4.35
117.108 4.35
117.1414 4.35
117.1716 4.35
117.205 4.35
117.236 4.35
117.2652 4.35
117.2985 4.35
117.3319 4.35
117.3647 4.35
117.3941 4.35
117.4268 4.35
117.4601 4.35
117.4935 4.35
117.5242 4.35
117.557 4.35
117.5863 4.35
117.6197 4.35
117.6504 4.35
117.6803 4.35
117.7095 4.35
117.7428 4.35
117.7762 4.35
117.8095 4.35
117.8382 4.35
117.8716 4.35
117.9007 4.35
117.934 4.35
117.9634 4.35
117.9917 4.35
118.0213 4.35
118.0504 4.35
118.0837 4.35
118.1132 4.35
118.1433 4.35
118.1712 4.35
118.2006 4.35
118.2339 4.35
118.2618 4.35
118.2905 4.35
118.3239 4.35
118.3565 4.35
118.3899 4.35
118.4189 4.35
118.4486 4.35
118.4808 4.35
118.5094 4.35
118.5427 4.35
118.5717 4.35
118.6047 4.35
118.635 4.35
118.6678 4.35
118.7011 4.35
118.7338 4.35
118.7643 4.35
118.795 4.35
118.8258 4.35
118.8591 4.35
118.8883 4.35
118.9169 4.35
118.9502 4.35
118.9801 4.35
119.0135 4.35
119.0427 4.35
119.0715 4.35
119.1034 4.35
119.1326 4.35
119.1659 4.35
119.1937 4.35
119.2271 4.35
119.2571 4.35
119.2905 4.35
119.3238 4.35
119.3562 4.35
119.3866 4.35
119.4161 4.35
119.4494 4.35
119.4828 4.35
119.5128 4.35
119.5417 4.35
119.5708 4.35
119.6042 4.35
119.6375 4.35
119.6686 4.35
119.7019 4.35
119.733 4.35
119.7664 4.35
119.7997 4.35
119.8288 4.35
119.8605 4.35
119.8923 4.35
119.9223 4.35
119.9556 4.35
119.9889 4.35
120.0173 4.35
120.0471 4.35
120.0804 4.35
120.1137 4.35
120.1471 4.35
120.1769 4.35
120.2067 4.35
120.2385 4.35
120.2718 4.35
120.3051 4.35
120.3329 4.35
120.3618 4.35
120.3919 4.35
120.4253 4.35
120.4567 4.35
120.4857 4.35
120.5149 4.35
120.5453 4.35
120.5786 4.35
120.6066 4.35
120.6372 4.35
120.6681 4.35
120.6973 4.35
120.7306 4.35
120.764 4.35
120.7925 4.35
120.8258 4.35
120.8564 4.35
120.8897 4.35
120.922 4.35
120.9509 4.35
120.9789 4.35
121.0092 4.35
121.0426 4.35
121.0733 4.35
121.1034 4.35
121.1348 4.35
121.1659 4.35
121.1992 4.35
121.2285 4.35
121.2572 4.35
121.2882 4.35
121.3174 4.35
121.3508 4.35
121.3795 4.35
121.411 4.35
121.4443 4.35
121.4776 4.35
121.511 4.35
121.5395 4.35
121.5679 4.35
121.5965 4.35
121.6267 4.35
121.66 4.35
121.6915 4.35
121.7249 4.35
121.7536 4.35
121.7869 4.35
121.8202 4.35
121.8494 4.35
121.8828 4.35
121.9128 4.35
121.942 4.35
121.9753 4.35
122.0073 4.35
122.0406 4.35
122.0709 4.35
122.1004 4.35
122.1337 4.35
122.163 4.35
122.1963 4.35
122.227 4.35
122.2578 4.35
122.2911 4.35
122.3209 4.35
122.3502 4.35
122.3793 4.35
122.4101 4.35
122.4434 4.35
122.4752 4.35
122.5085 4.35
122.5403 4.35
122.5703 4.35
122.6036 4.35
122.6324 4.35
122.6605 4.35
122.6894 4.35
122.7183 4.35
122.7466 4.35
122.78 4.35
122.8122 4.35
122.8414 4.35
122.8748 4.35
122.9035 4.35
122.9369 4.35
122.9682 4.35
123.0001 4.35
123.0297 4.35
123.0583 4.35
123.0916 4.35
123.1197 4.35
123.1531 4.35
123.182 4.35
123.213 4.35
123.2464 4.35
123.2792 4.35
123.3077 4.35
123.3364 4.35
123.3653 4.35
123.3987 4.35
123.4316 4.35
123.4649 4.35
123.4977 4.35
123.5276 4.35
123.5609 4.35
123.593 4.35
123.622 4.35
123.652 4.35
123.6853 4.35
123.7187 4.35
123.7494 4.35
123.7802 4.35
123.8123 4.35
123.8436 4.35
123.8769 4.35
123.9098 4.35
123.9412 4.35
123.97 4.35
123.9991 4.35
124.0324 4.35
124.0603 4.35
124.0935 4.35
124.1268 4.35
124.1553 4.35
124.1887 4.35
124.2173 4.35
124.2454 4.35
124.2788 4.35
124.3076 4.35
124.3409 4.35
124.3697 4.35
124.4014 4.35
124.4347 4.35
124.464 4.35
124.4973 4.35
124.5296 4.35
124.5618 4.35
124.5947 4.35
124.628 4.35
124.6613 4.35
124.6947 4.35
124.724 4.35
124.7571 4.35
124.7859 4.35
124.8193 4.35
124.8504 4.35
124.8837 4.35
124.9153 4.35
124.9486 4.35
124.982 4.35
125.012 4.35
125.044 4.35
125.0773 4.35
125.1065 4.35
125.1398 4.35
125.1732 4.35
125.2023 4.35
125.2343 4.35
125.2657 4.35
125.299 4.35
125.3286 4.35
125.36 4.35
125.3926 4.35
125.423 4.35
125.4564 4.35
125.4879 4.35
125.5175 4.35
125.5461 4.35
125.5794 4.35
125.6128 4.35
125.6425 4.35
125.6705 4.35
125.7024 4.35
125.7311 4.35
125.7645 4.35
125.7957 4.35
125.8255 4.35
125.8573 4.15
125.8907 3.45
125.924 3.45
125.957 2.6
125.9865 1.95
126.0168 1.95
126.0486 1.3
126.0819 1.3
126.1137 1.05
126.1461 0.85
126.1764 0.85
126.2068 0.85
126.2401 0.65
126.2694 0.65
126.2993 0.2
126.3277 -0.65
126.3581 -0.65
126.3914 -1.05
126.4221 -1.05
126.4507 -1.5
126.4798 -1.5
126.5132 -1.5
126.5465 -1.5
126.5776 -1.5
126.6088 -1.5
126.6377 -1.5
126.671 -1.5
126.7043 -1.5
126.7377 -1.5
126.7674 -1.5
126.8008 -1.5
126.8302 -1.5
126.8636 -1.5
126.8952 -1.5
126.9259 -1.5
126.9578 -1.5
126.9866 -1.5
127.02 -1.5
127.0493 -1.5
127.0777 -1.5
127.1088 -1.5
127.1398 -1.5
127.1731 -1.5
127.2063 -1.5
127.2396 -1.5
127.2716 -1.5
127.305 -1.5
127.3383 -1.5
127.3691 -1.5
127.4021 -1.5
127.4313 -1.5
127.4598 -1.5
127.4931 -1.5
127.5223 -1.5
127.5548 -1.5
127.5838 -1.5
127.6128 -1.5
127.6461 -1.5
127.6774 -1.5
127.7092 -1.5
127.7397 -1.5
127.773 -1.5
127.8063 -1.5
127.8392 -1.5
127.8689 -1.5
127.8975 -1.5
127.9279 -1.5
127.9612 -1.5
127.9918 -1.5
128.0197 -1.5
128.0487 -1.5
128.0802 -1.5
128.1136 -1.5
128.1457 -1.5
128.1767 -1.5
128.2055 -1.5
128.2382 -1.5
128.2716 -1.5
128.3005 -1.5
128.3299 -1.5
128.359 -1.5
128.3906 -1.5
128.4239 -1.5
128.4539 -1.5
128.4821 -1.5
128.5113 -1.5
128.5422 -1.5
128.5755 -1.5
128.6048 -1.5
128.6344 -1.5
128.6651 -1.5
128.6962 -1.5
128.7296 -1.5
128.7623 -1.5
128.7924 -1.5
128.8221 -1.5
128.8554 -1.5
128.8887 -1.5
128.9202 -1.5
128.9535 -1.5
128.9823 -1.5
129.0134 -1.5
129.0467 -1.5
129.0795 -1.5
129.1083 -1.5
129.1388 -1.5
129.1721 -1.5
129.2054 -1.5
129.2346 -1.5
129.2635 -1.5
129.2968 -1.5
129.3299 -1.5
129.3632 -1.5
129.3965 -1.5
129.4272 -1.5
129.4599 -1.5
129.4923 -1.5
129.5256 -1.5
129.5563 -1.5
129.5897 -1.5
129.6192 -1.5
129.6526 -1.5
129.6859 -1.5
129.7153 -1.5
129.7438 -1.5
129.7759 -1.5
129.8054 -1.5
129.8387 -1.5
129.8714 -1.5
129.9047 -1.5
129.9367 -1.5
129.967 -1.5
130.0004 -1.5
130.0337 -1.5
130.0639 -1.5
130.0958 -1.5
130.1291 -1.5
130.1624 -1.5
130.1935 -1.5
130.2228 -1.5
130.254 -1.5
130.2873 -1.5
130.3207 -1.5
130.3512 -1.5
130.3815 -1.5
130.4148 -1.5
130.4457 -1.5
130.479 -1.5
130.5071 -1.5
130.5394 -1.5
130.5715 -1.5
130.6043 -1.5
130.6376 -1.5
130.6701 -1.5
130.702 -1.5
130.7333 -1.5
130.763 -1.5
130.7963 -1.5
130.8286 -1.5
130.8616 -1.5
130.895 -1.5
130.926 -1.5
130.9593 -1.5
130.9879 -1.5
131.0189 -1.5
131.0466 -1.5
131.0764 -1.5
131.1097 -1.5
131.1396 -1.5
131.1689 -1.5
131.1993 -1.5
131.2283 -1.5
131.2616 -1.5
131.2941 -1.5
131.3232 -1.5
131.3565 -1.5
131.3899 -1.5
131.4232 -1.5
131.4565 -1.5
131.4868 -1.5
131.5149 -1.5
131.5455 -1.5
131.5788 -1.5
131.6069 -1.5
131.6357 -1.5
131.6676 -1.5
131.7008 -1.5
131.7342 -1.5
131.766 -1.5
131.797 -1.5
131.8299 -1.5
131.8602 -1.5
131.8935 -1.5
131.9224 -1.5
131.9537 -1.5
131.9823 -1.5
132.0132 -1.5
132.0465 -1.5
132.0765 -1.5
132.1098 -1.5
132.141 -1.5
132.169 -1.5
132.2023 -1.5
132.233 -1.5
132.2623 -1.5
132.2957 -1.5
132.329 -1.5
132.3619 -1.5
132.3906 -1.5
132.4194 -1.5
132.4484 -1.5
132.4817 -1.5
132.515 -1.5
132.5431 -1.5
132.5717 -1.5
132.6005 -1.5
132.632 -1.5
132.6653 -1.5
132.6945 -1.5
132.7248 -1.5
132.758 -1.5
132.7873 -1.5
132.8206 -1.5
132.8516 -1.5
132.8799 -1.5
132.913 -1.5
132.9436 -1.5
132.9769 -1.5
133.0052 -1.5
133.0379 -1.5
133.0685 -1.5
133.0977 -1.5
133.131 -1.5
133.1613 -1.5
133.1904 -1.5
133.2219 -1.5
133.2511 -1.5
133.2844 -1.5
133.3146 -1.5
133.3438 -1.5
133.3726 -1.5
133.4031 -1.5
133.4364 -1.5
133.4664 -1.5
133.4955 -1.5
133.5261 -1.5
133.5553 -1.5
133.5886 -1.5
133.622 -1.5
133.654 -1.5
133.6867 -1.5
133.7186 -1.5
133.752 -1.5
133.7817 -1.5
133.815 -1.5
133.8439 -1.5
133.8733 -1.5
133.9067 -1.5
133.9361 -1.5
133.969 -1.5
134.0006 -1.5
134.0319 -1.5
134.0652 -1.5
134.0963 -1.5
134.1276 -1.5
134.1573 -1.5
134.1878 -1.5
134.2211 -1.5
134.2514 -1.5
134.2823 -1.5
134.314 -1.5
134.3437 -1.5
134.377 -1.5
134.4067 -1.5
134.4374 -1.5
134.47 -1.5
134.4986 -1.5
134.5319 -1.5
134.5641 -1.5
134.5967 -1.5
134.6301 -1.5
134.6615 -1.5
134.6948 -1.5
134.7241 -1.5
134.7534 -1.7
134.7867 -2.15
134.818 -2.15
134.8514 -2.8
134.8847 -3.45
134.9135 -3.45
134.9434 -4.15
134.9717 -4.15
135.0051 -4.55
135.0342 -4.8
135.0667 -4.8
135.0968 -4.8
135.1301 -4.8
135.1635 -4.8
135.1959 -4.8
135.2257 -4.8
135.2561 -4.8
135.2886 -4.8
135.322 -4.8
135.3553 -4.8
135.3843 -4.8
135.4176 -4.8
135.451 -4.8
135.4843 -4.8
135.5144 -4.8
135.5442 -4.8
135.5743 -4.8
135.6044 -4.8
135.6377 -4.8
135.668 -4.55
135.6985 -4.35
135.7319 -4.35
135.7652 -4.15
135.7985 -3.9
135.8276 -3.9
135.8593 -3.7
135.8884 -3.45
135.9174 -3.45
135.9507 -3.45
135.9797 -3.45
136.0126 -3.45
136.0432 -3.25
136.073 -3.25
136.1063 -3.25
136.1359 -3.25
136.1655 -3.25
136.1956 -3.25
136.2277 -3.25
136.2611 -3.25
136.2944 -3.25
136.3241 -3.25
136.3538 -3.25
136.3872 -3.25
136.4205 -3.25
136.4513 -3.25
136.4801 -3.05
136.5126 -3.05
136.5426 -3.05
136.5759 -2.8
136.6062 -2.8
136.6395 -2.6
136.6712 -2.6
136.702 -2.6
136.7353 -2.6
136.768 -2.6
136.7985 -2.6
136.8286 -2.6
136.8618 -2.6
136.8951 -2.6
136.9242 -2.6
136.9527 -2.6
136.983 -2.6
137.0121 -2.6
137.0454 -2.6
137.0788 -2.6
137.1087 -2.6
137.1371 -2.6
137.1685 -2.6
137.2019 -2.6
137.2348 -2.6
137.2681 -2.6
137.3014 -2.6
137.3313 -2.6
137.3646 -2.6
137.3956 -2.6
137.4241 -2.6
137.4536 -2.6
137.4842 -2.6
137.5175 -2.6
137.5494 -2.6
137.5793 -2.4
137.6126 -2.4
137.642 -2.4
137.6754 -2.15
137.7047 -2.15
137.734 -1.95
137.7635 -1.95
137.7969 -1.7
137.8302 -1.5
137.8626 -1.5
137.8911 -1.5
137.922 -1.5
137.9516 -1.5
137.9849 -1.5
138.0183 -1.5
138.0516 -1.5
138.0818 -1.5
138.1115 -1.5
138.1449 -1.5
138.1782 -1.5
138.2083 -1.5
138.2417 -1.5
138.2733 -1.5
138.3066 -1.5
138.3369 -1.5
138.3668 -1.3
138.3992 -1.05
138.4289 -1.05
138.4622 -0.85
138.4921 -0.4
138.5222 -0.4
138.5542 -0.2
138.5845 -0.2
138.6178 -0.2
138.6494 -0.2
138.678 -0.2
138.7113 -0.2
138.741 -0.2
138.7744 -0.2
138.8047 -0.2
138.8367 -0.65
138.87 -0.65
138.901 -1.3
138.9343 -2.4
138.9676 -2.4
138.9966 -3.05
139.0251 -3.25
139.0584 -3.25
139.0917 -3.25
139.1214 -3.25
139.1522 -3.25
139.1855 -3.25
139.2155 -3.25
139.2488 -3.25
139.2821 -3.25
139.3112 -3.25
139.3403 -3.25
139.3696 -3.25
139.4029 -3.25
139.4335 -3.25
139.4669 -3.25
139.4972 -3.25
139.5279 -3.25
139.5613 -3.25
139.5912 -3.25
139.6245 -3.25
139.6536 -3.25
139.6828 -3.25
139.7161 -3.25
139.7491 -3.25
139.7804 -3.25
139.8137 -3.25
139.8429 -3.25
139.8763 -3.25
139.9096 -3.25
139.9429 -3.25
139.9728 -3.25
140.0062 -3.25
140.0395 -3.25
140.0681 -3.25
140.0984 -3.25
140.1317 -3.25
140.1622 -3.25
140.1956 -3.25
140.2289 -3.25
140.2596 -3.25
140.2909 -3.25
140.3242 -3.25
140.3575 -3.25
140.3875 -3.25
140.4174 -3.25
140.4478 -3.25
140.4786 -3.25
140.5119 -3.25
140.5419 -3.25
140.5723 -3.25
140.6027 -3.25
140.6345 -3.25
140.6679 -3.25
140.7012 -3.25
140.7289 -3.25
140.7622 -3.25
140.7916 -3.25
140.8249 -3.25
140.8575 -3.25
140.8881 -3.25
140.9174 -3.25
140.9503 -3.25
140.9836 -3.25
141.0126 -3.25
141.0427 -3.25
141.0727 -3.25
141.1019 -3.25
141.1353 -3.25
141.1686 -3.25
141.1982 -3.25
141.2272 -3.25
141.2559 -3.25
141.2893 -3.25
141.3205 -3.25
141.3527 -3.25
141.3818 -3.25
141.4129 -3.25
141.4463 -3.25
141.4772 -3.25
141.5072 -3.25
141.5393 -3.25
141.5726 -3.25
141.6059 -3.25
141.6344 -3.25
141.6647 -3.25
141.6965 -3.25
141.7262 -3.25
141.7595 -3.25
141.7897 -3.25
141.8231 -3.25
141.8541 -3.25
141.8847 -3.25
141.918 -3.25
141.948 -3.25
141.9804 -3.25
142.0117 -3.25
142.0417 -3.25
142.075 -3.25
142.1057 -3.25
142.1344 -3.25
142.167 -3.05
142.1986 -3.05
142.2319 -3.05
142.2652 -3.05
142.2964 -3.05
142.3255 -3.05
142.3588 -3.05
142.3921 -3.05
142.4207 -3.05
142.4517 -3.05
142.4818 -3.05
142.514 -3.05
142.5473 -3.05
142.5762 -3.05
142.6049 -3.05
142.6376 -3.05
142.671 -3.05
142.7043 -3.05
142.7359 -3.05
142.7692 -3.05
142.8026 -3.05
142.8329 -3.05
142.8662 -3.05
142.8945 -3.05
142.9265 -3.05
142.9598 -3.05
142.9931 -2.8
143.0265 -2.8
143.0573 -1.7
143.0907 -0.4
143.124 -0.4
143.1539 0
143.1873 0
143.2197 0
143.2503 -0.4
143.2793 -0.65
143.3096 -0.65
143.3429 -0.85
143.3763 -1.05
143.4061 -1.05
143.4368 -1.5
143.4674 -1.95
143.5007 -1.95
143.5298 -2.15
143.5596 -2.15
143.5929 -2.6
143.6263 -2.8
143.6596 -2.8
143.6893 -2.8
143.7184 -2.8
143.7518 -2.8
143.7822 -2.8
143.8155 -2.8
143.8445 -2.8
143.8753 -2.8
143.9053 -2.8
143.9351 -2.8
143.9684 -2.8
143.9979 -2.8
144.0312 -2.8
144.0645 -2.8
144.0952 -2.8
144.1286 -2.8
144.159 -2.8
144.1889 -2.8
144.2178 -2.8
144.2486 -2.8
144.2819 -2.8
144.3109 -2.8
144.3406 -2.8
144.37 -2.8
144.3999 -2.8
144.4333 -2.8
144.4622 -2.8
144.4917 -2.8
144.5226 -2.8
144.556 -2.8
144.5893 -2.8
144.6224 -2.8
144.6557 -2.8
144.6846 -2.8
144.718 -2.8
144.7513 -2.8
144.78 -2.8
144.8086 -2.8
144.8419 -2.8
144.8715 -2.8
144.9048 -2.8
144.9342 -2.8
144.9629 -3.05
144.9962 -3.05
145.0256 -3.7
145.0589 -4.55
145.0879 -4.55
145.1166 -5.45
145.1489 -5.45
145.1797 -5.65
145.213 -5.65
145.243 -5.65
145.2733 -5.65
145.3067 -5.65
145.3372 -5.65
145.3706 -5.65
145.4021 -5.65
145.4354 -5.65
145.464 -5.65
145.494 -5.65
145.5273 -5.65
145.5579 -5.65
145.5883 -5.65
145.6217 -5.65
145.6527 -5.65
145.686 -5.65
145.7175 -5.65
145.7489 -5.65
145.7795 -5.65
145.8125 -5.65
145.8459 -5.65
145.8768 -5.65
145.9102 -5.65
145.94 -5.65
145.9716 -5.65
146.0049 -5.65
146.0382 -5.65
146.0681 -5.65
146.0962 -5.65
146.1289 -5.65
146.1623 -5.65
146.1936 -5.65
146.2246 -5.65
146.2561 -5.65
146.287 -5.65
146.3203 -5.65
146.3501 -5.65
146.3802 -5.65
146.4133 -5.65
146.4427 -5.65
146.476 -5.65
146.5073 -5.65
146.5406 -5.65
146.5699 -5.65
146.6026 -5.65
146.6359 -5.65
146.6648 -5.65
146.6963 -5.65
146.728 -5.65
146.7578 -5.65
146.7911 -5.65
146.8217 -5.65
146.8538 -5.65
146.8827 -5.65
146.9121 -5.65
146.9454 -5.65
146.9757 -5.65
147.0052 -5.65
147.0336 -5.65
147.0638 -5.65
147.0971 -5.65
147.1262 -5.65
147.1595 -5.65
147.1893 -5.65
147.2187 -5.65
147.252 -5.65
147.2821 -5.65
147.3113 -5.65
147.3431 -5.65
147.3764 -5.65
147.4098 -5.65
147.4398 -5.65
147.4732 -5.65
147.5014 -5.65
147.5309 -5.65
147.5642 -5.65
147.5927 -5.65
147.6226 -5.65
147.654 -5.65
147.6823 -5.65
147.7156 -5.65
147.7466 -5.65
147.7766 -5.65
147.8061 -5.65
147.8373 -5.65
147.8706 -5.65
147.8994 -5.65
147.9306 -5.65
147.964 -5.65
147.9938 -5.65
148.0272 -5.65
148.0564 -5.65
148.0863 -5.65
148.1197 -5.65
148.1507 -5.65
148.1841 -5.65
148.2174 -5.65
148.2456 -5.65
148.2758 -5.65
148.3091 -5.65
148.3425 -5.65
148.3749 -5.65
148.4034 -5.65
148.4357 -5.65
148.466 -5.65
148.4994 -5.65
148.5278 -5.65
148.5587 -5.65
148.5921 -5.65
148.6254 -5.65
148.6587 -5.65
148.6921 -5.65
148.7201 -5.65
148.7493 -5.65
148.779 -5.65
148.8123 -5.65
148.8457 -5.65
148.8766 -5.65
148.9052 -5.65
148.9366 -5.65
148.9699 -5.65
149.0009 -5.65
149.0313 -5.65
149.0602 -5.65
149.0935 -5.65
149.1268 -5.65
149.1602 -5.65
149.1933 -5.65
149.2267 -5.65
149.26 -5.65
149.2889 -5.65
149.3218 -5.65
149.3506 -5.65
149.3839 -5.65
149.4172 -5.65
149.4482 -5.65
149.4797 -5.65
149.51 -5.65
149.5417 -5.65
149.575 -5.65
149.6058 -5.65
149.6379 -5.65
149.6668 -5.65
149.6976 -5.65
149.7309 -5.65
149.7626 -5.65
149.7937 -5.65
149.8271 -5.65
149.8569 -5.65
149.8902 -5.65
149.9209 -5.65
149.9543 -5.65
149.9836 -5.65
150.0135 -5.65
150.0468 -5.65
150.0779 -5.65
150.1113 -5.65
150.1403 -5.65
150.1723 -5.65
150.2056 -5.65
150.239 -5.65
150.2687 -5.65
150.3019 -5.65
150.3352 -5.65
150.3686 -5.65
150.4019 -5.65
150.4324 -5.65
150.4633 -5.65
150.4933 -5.65
150.5266 -5.65
150.5599 -5.65
150.5929 -5.65
150.6263 -5.65
150.6568 -5.65
150.6901 -5.65
150.7193 -5.65
150.7484 -5.65
150.7799 -5.65
150.812 -5.65
150.8453 -5.65
150.8771 -5.65
150.9053 -5.65
150.9344 -5.65
150.967 -5.65
151.0003 -5.65
151.0337 -5.65
151.067 -5.65
151.0989 -5.65
151.1317 -5.65
151.165 -5.65
151.1965 -5.65
151.2287 -5.65
151.2615 -5.65
151.2941 -5.65
151.3274 -5.65
151.3563 -5.65
151.389 -5.65
151.4223 -5.65
151.4538 -5.65
151.4872 -5.65
151.5201 -5.65
151.5488 -5.65
151.5781 -5.65
151.608 -5.65
151.6413 -5.65
151.6747 -5.65
151.708 -5.65
151.7395 -5.65
151.7707 -5.65
151.804 -5.65
151.8356 -5.65
151.8661 -5.65
151.8962 -5.65
151.9265 -5.65
151.9599 -5.65
151.9895 -5.65
152.0218 -5.65
152.0497 -5.65
152.083 -5.65
152.1163 -5.65
152.1458 -5.65
152.1791 -5.65
152.2125 -5.65
152.2458 -5.65
152.2791 -5.85
152.3125 -6.1
152.3426 -6.1
152.3721 -6.55
152.4035 -6.95
152.4368 -6.95
152.4659 -7.4
152.4967 -7.6
152.5283 -7.6
152.5616 -8.05
152.595 -8.3
152.6275 -8.3
152.6574 -8.5
152.6871 -8.95
152.7179 -8.95
152.7512 -9.15
152.7845 -9.35
152.8179 -9.35
152.8478 -9.6
152.8786 -9.6
152.9119 -9.6
152.942 -9.8
152.975 -10
153.0053 -10
153.0348 -10.25
153.0681 -10.25
153.0974 -10.45
153.1299 -10.7
153.1591 -10.7
153.1894 -10.7
153.2227 -10.7
153.2513 -10.7
153.2811 -10.7
153.3114 -10.7
153.3448 -10.7
153.3781 -10.9
153.4073 -11.35
153.4373 -11.35
153.4685 -11.35
153.4989 -11.35
153.5322 -11.35
153.5614 -11.35
153.5938 -11.35
153.6232 -11.35
153.6521 -11.35
153.6855 -11.35
153.7143 -11.35
153.743 -11.35
153.7732 -11.35
153.8034 -11.35
153.8368 -11.35
153.8669 -11.35
153.8973 -11.35
153.9265 -11.35
153.9561 -11.35
153.9895 -11.35
154.0177 -11.35
154.0499 -11.35
154.0794 -11.35
154.1127 -11.35
154.146 -11.35
154.1756 -11.35
154.2058 -11.35
154.2392 -11.35
154.2688 -11.35
154.3022 -11.35
154.332 -11.35
154.365 -11.35
154.3984 -11.35
154.4281 -11.35
154.4614 -11.35
154.4918 -11.35
154.5211 -11.35
154.5541 -11.35
154.5857 -11.35
154.6191 -11.35
154.6524 -11.35
154.6857 -11.35
154.7162 -11.35
154.7489 -11.35
154.7823 -11.35
154.8121 -11.35
154.8419 -11.35
154.8732 -11.35
154.9045 -11.1
154.9378 -11.1
154.9698 -11.1
155.0023 -11.1
155.0357 -11.1
155.0685 -11.1
155.1019 -11.1
155.1352 -11.1
155.1674 -11.1
155.1968 -11.1
155.2301 -11.1
155.2635 -11.1
155.2968 -11.1
155.3283 -11.1
155.357 -11.1
155.3896 -11.1
155.4229 -11.1
155.4513 -11.1
155.4805 -11.1
155.5139 -11.1
155.5446 -11.1
155.578 -11.1
155.6088 -11.1
155.6383 -11.1
155.6687 -11.1
155.6988 -11.1
155.7321 -11.1
155.7619 -11.1
155.7913 -11.1
155.8204 -11.1
155.8508 -11.1
155.8841 -11.1
155.9131 -11.1
155.9445 -11.1
155.9778 -11.1
156.0089 -11.1
156.0422 -11.1
156.0717 -11.1
156.1013 -11.1
156.1322 -11.1
156.1651 -11.1
156.1984 -11.1
156.2285 -11.1
156.2597 -11.1
156.29 -11.1
156.3196 -11.1
156.3529 -11.1
156.3863 -11.1
156.4184 -11.1
156.4487 -11.1
156.479 -11.1
156.5123 -11.1
156.5434 -11.1
156.5736 -11.1
156.6052 -11.1
156.6383 -11.1
156.6716 -11.1
156.7019 -11.1
156.7315 -11.1
156.7645 -11.1
156.7976 -11.1
156.8309 -11.1
156.8611 -11.1
156.8905 -11.1
156.9222 -11.1
156.9518 -11.1
156.9851 -11.1
157.0173 -11.1
157.0465 -11.1
157.0757 -11.1
157.1091 -11.1
157.1424 -11.1
157.1757 -11.1
157.2055 -11.1
157.2343 -11.1
157.266 -11.1
157.2993 -11.1
157.3295 -11.1
157.3605 -11.1
157.3911 -11.1
157.4214 -11.1
157.4547 -11.1
157.4833 -11.1
157.5146 -11.1
157.5479 -11.1
157.5808 -11.1
157.6141 -11.1
157.6448 -11.1
157.6781 -11.1
157.7073 -11.1
157.7374 -11.1
157.7707 -11.1
157.8014 -11.1
157.8305 -11.1
157.8637 -11.1
157.893 -11.1
157.9263 -11.1
157.9582 -11.1
157.99 -11.1
158.0217 -11.1
158.0531 -11.1
158.0865 -11.1
158.1169 -11.1
158.1502 -11.1
158.1824 -11.1
158.2157 -11.1
158.249 -11.1
158.2771 -11.1
158.3069 -11.1
158.3403 -11.1
158.3713 -11.1
158.4046 -11.1
158.4379 -11.1
158.4668 -11.1
158.4979 -11.1
158.529 -11.1
158.5623 -11.1
158.5957 -11.1
158.629 -11.1
158.6623 -11.1
158.6957 -11.1
158.729 -11.1
158.7623 -11.1
158.794 -11.1
158.8235 -11.1
158.8548 -11.1
158.8881 -11.1
158.9213 -11.1
158.9511 -11.1
158.9801 -11.1
159.0097 -11.1
159.043 -11.1
159.0747 -11.1
159.1057 -11.1
159.1348 -11.1
159.1657 -11.1
159.199 -11.1
159.2285 -11.1
159.26 -11.1
159.2903 -11.1
159.3237 -11.1
159.357 -11.1
159.3871 -11.1
159.4168 -11.1
159.4461 -11.1
159.4761 -11.1
159.5094 -11.1
159.5428 -11.1
159.5738 -11.1
159.6031 -11.1
159.6337 -11.1
159.6671 -11.1
159.7004 -11.1
159.7335 -11.1
159.7657 -11.1
159.7952 -11.1
159.8286 -11.1
159.8595 -11.1
159.8928 -11.1
159.923 -11.1
159.9528 -11.1
159.9861 -11.1
160.0194 -11.1
160.0528 -11.1
160.0811 -11.1
160.1115 -11.1
160.1448 -11.1
160.1777 -11.1
160.2067 -11.1
160.238 -11.1
160.267 -11.1
160.3003 -11.1
160.3336 -11.1
160.3653 -11.1
160.3953 -11.1
160.4263 -11.1
160.4596 -11.1
160.493 -11.1
160.5225 -11.1
160.551 -11.1
160.5813 -11.1
160.6146 -11.1
160.6441 -11.1
160.6775 -11.1
160.708 -11.1
160.7371 -11.1
160.7705 -11.1
160.8016 -11.1
160.834 -11.35
160.8665 -11.55
160.8988 -11.55
160.9321 -11.55
160.9654 -11.55
160.9944 -11.55
161.0257 -11.55
161.0562 -11.55
161.0895 -11.55
161.1193 -11.55
161.1487 -11.55
161.1785 -11.55
161.2118 -11.55
161.2452 -11.55
161.2746 -11.55
161.3069 -11.55
161.3362 -11.55
161.3686 -11.55
161.4019 -11.55
161.4353 -11.55
161.4677 -11.55
161.4963 -11.75
161.5297 -11.75
161.563 -12
161.5916 -12.45
161.6249 -12.45
161.6582 -12.65
161.6877 -12.65
161.721 -12.65
161.7504 -12.65
161.781 -12.65
161.814 -12.65
161.8473 -12.85
161.8807 -12.85
161.9102 -12.85
161.9435 -12.85
161.9728 -12.85
162.0037 -12.85
162.037 -12.85
162.0658 -12.85
162.0972 -12.85
162.1269 -12.85
162.156 -12.85
162.1894 -12.85
162.2227 -12.85
162.2548 -13.3
162.2858 -13.3
162.3159 -13.75
162.3493 -14.4
162.3826 -14.4
162.4159 -14.85
162.4468 -15.25
162.4793 -15.25
162.5126 -15.9
162.5418 -15.9
162.5751 -16.35
162.6062 -16.8
162.6395 -16.8
162.6728 -17.25
162.7046 -17.25
162.738 -17.25
162.7713 -17.25
162.8013 -17.25
162.8346 -17.25
162.8675 -17.25
162.9009 -17.25
162.9305 -17.25
162.9638 -17.25
162.9971 -17.25
163.0287 -17.25
163.0595 -17.25
163.0904 -17.25
163.1189 -17.25
163.1523 -17.25
163.1839 -17.25
163.2173 -17.25
163.247 -17.25
163.2789 -17.25
163.3122 -17
163.3424 -17
163.3721 -16.6
163.404 -16.35
163.4371 -16.35
163.4704 -15.9
163.4989 -15.5
163.5284 -15.5
163.5597 -15.25
163.5912 -15.25
163.6245 -15.05
163.6546 -14.85
163.6849 -14.85
163.7182 -14.85
163.7487 -14.85
163.7821 -14.85
163.8121 -14.85
163.8455 -14.85
163.8739 -14.85
163.9036 -15.05
163.937 -15.5
163.9665 -15.5
163.9994 -15.9
164.0327 -15.9
164.0648 -15.9
164.0981 -15.9
164.1301 -15.9
164.1603 -15.9
164.1913 -15.9
164.2247 -15.9
164.258 -15.9
164.2913 -15.7
164.3246 -15.5
164.3533 -15.5
164.3835 -15.5
164.4168 -15.5
164.4486 -15.5
164.4819 -15.5
164.5127 -15.5
164.546 -15.5
164.5793 -15.5
164.6091 -15.5
164.6389 -15.5
164.6676 -15.5
164.6968 -15.5
164.7301 -15.5
164.7613 -15.5
164.7901 -15.05
164.8193 -15.05
164.8527 -14.4
164.886 -13.5
164.9156 -13.5
164.9456 -12.85
164.9747 -12.85
165.0073 -12.45
165.0406 -12.45
165.074 -12.45
165.1032 -12.45
165.1337 -12.45
165.167 -12.45
165.2004 -12.45
165.2297 -13.1
165.2615 -13.75
165.2948 -13.75
165.3246 -14.6
165.3579 -15.05
165.3912 -15.05
165.4232 -15.05
165.4527 -15.05
165.4831 -15.05
165.5164 -15.05
165.5465 -15.05
165.5767 -15.05
165.61 -14.4
165.6434 -14.4
165.6767 -13.95
165.71 -13.5
165.7434 -13.5
165.772 -13.5
165.8053 -13.5
165.8386 -13.5
165.872 -13.5
165.9053 -13.5
165.9385 -13.75
165.968 -13.75
166.0013 -13.75
166.0314 -13.95
166.0607 -13.95
166.0936 -13.95
166.1269 -13.95
166.1602 -13.95
166.1911 -13.95
166.2214 -13.95
166.2542 -13.95
166.2862 -13.5
166.3195 -13.1
166.3503 -13.1
166.3803 -12.65
166.41 -12.65
166.4434 -12.45
166.4767 -12.45
166.5101 -12.45
166.5418 -12.45
166.5735 -12.45
166.6032 -12.45
166.6365 -12.45
166.668 -12.45
166.6981 -12.45
166.728 -12.45
166.7591 -12.45
166.7925 -12.45
166.8258 -12.2
166.8586 -12
166.8917 -11.55
166.9239 -11.55
166.9573 -11.35
166.9906 -10.9
167.0208 -10.9
167.0541 -10.7
167.0865 -10.25
167.1198 -10.25
167.1532 -10.25
167.1818 -10.25
167.2113 -10.25
167.2446 -10.45
167.2779 -10.9
167.3073 -10.9
167.3392 -11.35
167.3723 -12.2
167.4028 -12.2
167.4361 -12.65
167.4669 -12.85
167.4965 -12.85
167.5273 -13.1
167.5591 -13.1
167.5925 -13.1
167.6234 -13.3
167.6564 -13.3
167.6891 -13.75
167.7207 -13.95
167.754 -14.4
167.7874 -14.4
167.8207 -14.4
167.8514 -14.6
167.8813 -14.6
167.9146 -14.6
167.948 -14.6
167.9769 -14.6
168.0081 -14.6
168.0415 -14.6
168.0748 -14.6
168.1051 -14.6
168.136 -14.6
168.1693 -14.6
168.2018 -14.6
168.2352 -14.6
168.2646 -14.6
168.2951 -14.6
168.3266 -14.6
168.3587 -14.6
168.392 -14.4
168.4254 -14.4
168.4569 -14.4
168.487 -14.15
168.5162 -14.15
168.5495 -14.15
168.5786 -14.15
168.6119 -14.15
168.6429 -14.15
168.6728 -14.15
168.7062 -13.95
168.7354 -13.95
168.7677 -13.75
168.8003 -13.75
168.8329 -13.5
168.8663 -13.3
168.897 -13.1
168.9296 -13.1
168.9628 -13.1
168.9961 -12.85
169.0295 -12.85
169.0624 -12.65
169.0925 -12.45
169.1258 -12.45
169.1574 -12.45
169.1907 -12.45
169.2235 -12.45
169.2549 -12.45
169.2847 -12.45
169.3145 -12.45
169.3479 -12.2
169.3812 -11.55
169.4145 -11.55
169.4454 -11.1
169.4787 -10
169.512 -10
169.5408 -9.35
169.5715 -8.7
169.601 -8.7
169.6322 -8.05
169.6655 -7.85
169.6983 -7.85
169.7305 -7.85
169.761 -7.85
169.7934 -7.85
169.8267 -7.85
169.86 -7.85
169.8933 -7.85
169.9233 -7.85
169.9528 -6.95
169.9862 -6.95
170.0165 -6.1
170.0461 -5.2
170.0795 -5.2
170.1099 -4.8
170.1432 -4.8
170.1724 -4.8
170.203 -4.8
170.2363 -4.8
170.2697 -4.8
170.303 -4.55
170.3336 -4.55
170.367 -4.55
170.4003 -4.55
170.4301 -4.55
170.4635 -4.55
170.4968 -4.35
170.5259 -3.9
170.5553 -3.9
170.5851 -2.8
170.6185 -1.7
170.6471 -1.7
170.6765 -0.4
170.7064 1.05
170.7353 1.05
170.7687 1.95
170.798 1.95
170.8264 3.25
170.858 3.9
170.8882 3.9
170.9215 4.15
170.9532 4.35
170.9865 4.35
171.0181 4.35
171.0489 4.35
171.0823 4.35
171.1125 4.35
171.1458 4.35
171.1791 4.35
171.2113 4.35
171.2447 4.35
171.2754 4.35
171.3052 4.15
171.3381 3.7
171.3714 3.7
171.4048 2.8
171.4345 1.5
171.4678 1.5
171.496 1.05
171.5277 1.05
171.5611 1.05
171.59 1.5
171.6206 2.6
171.6497 2.6
171.6795 3.7
171.7128 4.35
171.7444 4.35
171.7733 4.8
171.8042 4.8
171.8344 4.8
171.8677 4.8
171.901 4.8
171.9344 4.8
171.9677 4.8
171.9966 4.8
172.03 4.8
172.0587 4.55
172.0881 4.55
172.1177 4.55
172.1458 4.55
172.1791 4.55
172.2124 4.55
172.2453 4.8
172.2773 4.8
172.3105 5.45
172.3438 6.75
172.3735 6.75
172.4025 7.85
172.4319 8.3
172.4652 8.3
172.4985 8.7
172.5283 8.95
172.5572 8.95
172.5878 8.95
172.6194 8.95
172.6527 8.95
172.6824 8.95
172.7104 8.95
172.7395 8.95
172.7702 8.95
172.8035 8.7
172.8328 8.5
172.8624 8.5
172.8958 7.85
172.9289 7.4
172.9622 7.6
172.9908 7.6
173.0198 10
173.0486 10
173.078 12.85
173.1114 14.6
173.1405 14.6
173.1688 16.15
173.1996 16.15
173.2299 16.35
173.2633 15.9
173.2957 15.9
173.3269 15.05
173.3558 13.95
173.3862 13.95
173.4196 13.1
173.4499 11.55
173.4787 11.55
173.5097 10.25
173.5387 10.25
173.572 8.95
173.6053 8.5
173.6339 8.5
173.6672 9.15
173.698 11.1
173.7313 12.85
173.7618 12.85
173.7949 15.05
173.8256 15.05
173.856 16.6
173.8893 17.9
173.92 17.9
173.9502 19
173.981 20.5
174.0103 20.5
174.0436 21.15
174.0735 21.15
174.1047 21.15
174.138 21.15
174.1696 21.6
174.2029 21.6
174.2326 22.7
174.2649 22.7
174.2958 24.2
174.3273 26.2
174.3607 26.2
174.3926 27.95
174.425 29.45
174.4576 29.45
174.4894 31
174.5227 32.1
174.5528 32.1
174.5819 33.2
174.6152 34.05
174.6457 34.05
174.679 34.5
174.7123 34.7
174.7429 34.7
174.7716 34.7
174.803 34.95
174.8363 34.95
174.8651 34.95
174.8941 34.95
174.9256 34.95
174.9589 34.95
174.9922 34.95
175.0256 34.95
175.0556 34.95
175.0857 34.95
175.1183 34.95
175.1517 34.95
175.1827 34.95
175.2117 34.95
175.2405 34.7
175.2713 34.7
175.3046 34.5
175.3339 34.25
175.363 34.25
175.3921 34.25
175.422 34.25
175.4553 34.25
175.4851 34.5
175.5184 34.5
175.548 34.7
175.5781 35.15
175.6115 35.15
175.6448 35.8
175.6742 36.9
175.7025 36.9
175.7328 38.2
175.7661 39.1
175.7948 39.1
175.8281 40.15
175.8614 40.15
175.8948 41.5
175.9281 43.25
175.958 43.25
175.9872 46.05
176.0182 48.7
176.0515 48.7
176.0849 51.55
176.1182 53.5
176.1485 53.5
176.1776 55.7
176.2089 57.45
176.2422 57.45
176.2721 59.4
176.3055 60.05
176.3388 60.05
176.3681 60.25
176.4014 60.25
176.4343 60.25
176.4676 60.25
176.498 60.5
176.5313 60.5
176.5647 60.5
176.5941 60.5
176.6239 60.5
176.6555 60.5
176.6869 60.5
176.7202 60.5
176.7509 60.7
176.7826 60.25
176.8136 60.25
176.8423 59.85
176.8756 59.85
176.9054 59.15
176.9348 58.3
176.9674 58.3
177.0008 57.65
177.0341 56.1
177.0674 56.1
177.1008 54.8
177.134 53.05
177.1644 53.05
177.1977 52.4
177.2298 53.05
177.2606 53.05
177.291 53.95
177.3242 55.45
177.3575 55.45
177.3908 56.75
177.419 57.85
177.4484 57.85
177.4794 59.6
177.5128 60.9
177.543 60.9
177.5732 61.35
177.6048 61.35
177.6356 61.35
177.6689 61.15
177.6977 60.9
177.7311 60.9
177.7608 60.5
177.7902 60.5
177.8235 58.5
177.8549 55.7
177.8832 55.7
177.9154 53.05
177.9452 51.3
177.9785 51.3
178.0097 51.3
178.0405 51.55
178.0707 51.55
178.1012 51.3
178.1345 51.1
178.1677 51.1
178.1972 51.3
178.2262 51.3
178.2595 51.75
178.2928 52.85
178.3222 53.5
178.3503 53.5
178.3835 53.95
178.4145 53.95
178.4478 54.6
178.4771 55
178.5067 55
178.538 55
178.5698 55
178.6031 55
178.6331 55
178.663 54.8
178.6962 54.8
178.7295 53.95
178.7628 52.2
178.793 52.2
178.8223 47.8
178.8557 40.8
178.8874 40.8
178.9208 34.7
178.9524 28.6
178.9824 28.6
179.0146 20.75
179.0442 20.75
179.0776 16.6
179.107 13.3
179.1403 13.3
179.1737 12.2
179.2036 12.2
179.237 12.2
179.2703 12.2
179.301 12.2
179.3332 12.2
179.3665 12.2
179.3998 12.2
179.4291 12.2
179.458 12.2
179.4892 12
179.5219 12
179.5553 11.35
179.586 11.1
179.6154 11.1
179.6481 11.1
179.6788 11.1
179.7122 11.1
179.7455 10.9
179.7753 9.8
179.8058 9.8
179.836 7.2
179.8693 3.9
179.9004 3.9
179.9313 -2.4
179.9598 -10.7
179.9921 -10.7
180.0254 -17.65
180.0587 -23.35
180.089 -23.35
180.1214 -28.6
180.1547 -36.25
180.1881 -36.25
180.2177 -42.55
180.2458 -51.55
180.2792 -51.55
180.3125 -61.15
180.3458 -69.9
180.3766 -69.9
180.4078 -77.75
180.4388 -87.35
180.4692 -87.35
180.5025 -95.45
180.5311 -105.05
180.5612 -105.05
180.5907 -113.35
180.6201 -113.35
180.6534 -118.8
180.6868 -124.25
180.7167 -124.25
180.7501 -128.65
180.7828 -133.25
180.8161 -133.25
180.8484 -135.4
180.8786 -139.55
180.9081 -139.55
180.9399 -143.95
180.9733 -150.25
181.0066 -156.6
181.037 -156.6
181.0689 -161.65
181.0988 -161.65
181.1321 -168.2
181.1633 -174.3
181.1937 -174.3
181.2247 -179.1
181.2578 -183.9
181.2911 -183.9
181.3245 -188.05
181.3551 -191.35
181.3847 -191.35
181.4143 -193.1
181.4476 -195.9
181.4764 -195.9
181.5098 -198.55
181.5394 -201.4
181.5695 -201.4
181.6028 -203.35
181.6362 -205.1
181.6655 -205.1
181.6961 -206.65
181.7269 -206.65
181.7603 -207.7
181.7936 -207.95
181.8239 -207.95
181.8533 -207.95
181.8867 -207.95
181.92 -207.95
181.9517 -207.95
181.9812 -207.95
182.0143 -207.95
182.0451 -207.95
182.0784 -207.95
182.1118 -207.95
182.1409 -207.95
182.1742 -207.95
182.2076 -207.95
182.2409 -207.95
182.2742 -207.95
182.3056 -207.95
182.3377 -207.95
182.3673 -207.95
182.4006 -207.95
182.4319 -207.95
182.4621 -207.95
182.4912 -207.95
182.5245 -207.95
182.5579 -207.95
182.5912 -207.95
182.6245 -207.95
182.6579 -207.95
182.6882 -207.95
182.7215 -207.95
182.7514 -207.95
182.7841 -207.95
182.8133 -207.95
182.8465 -207.95
182.8799 -207.95
182.9132 -207.95
182.943 -207.95
182.9736 -207.95
183.007 -207.95
183.0403 -207.95
183.0703 -207.95
183.1016 -207.95
183.1324 -207.95
183.1629 -207.95
183.1962 -207.95
183.2271 -207.95
183.2561 -207.95
183.2879 -207.95
183.3187 -207.95
183.352 -207.95
183.3802 -207.95
183.4135 -207.7
183.4452 -207.7
183.4759 -207.7
183.5092 -207.7
183.5406 -207.7
183.5727 -207.7
183.6041 -207.7
183.6374 -207.7
183.6708 -207.7
183.7003 -207.7
183.7297 -207.7
183.7613 -207.7
183.7926 -207.7
183.826 -207.7
183.8593 -207.7
183.8895 -207.7
183.9214 -207.7
183.9506 -207.7
183.9839 -207.7
184.0173 -207.7
184.0466 -207.7
184.0762 -207.7
184.1093 -207.7
184.1427 -207.5
184.173 -207.5
184.2063 -207.5
184.2347 -207.5
184.2654 -207.5
184.2988 -207.5
184.3321 -207.5
184.3654 -207.5
184.3978 -207.5
184.4311 -207.5
184.4644 -207.5
184.4964 -207.5
184.5262 -207.5
184.5558 -207.5
184.5872 -207.5
184.6205 -207.5
184.6509 -207.5
184.6814 -207.5
184.7124 -207.5
184.7457 -207.5
184.779 -207.5
184.8103 -207.5
184.8436 -207.5
184.874 -207.5
184.9034 -207.5
184.9368 -207.5
184.9689 -207.5
184.9987 -207.5
185.0281 -207.5
185.0583 -207.5
185.0917 -207.5
185.1219 -207.5
185.1538 -207.5
185.1824 -207.5
185.2129 -207.5
185.2463 -207.5
185.2796 -207.5
185.311 -207.5
185.3403 -207.5
185.3736 -207.5
185.407 -207.5
185.4403 -207.5
185.4685 -207.5
185.5011 -207.5
185.5311 -207.5
185.5645 -207.5
185.5963 -207.5
185.6281 -207.5
185.6575 -207.5
185.6896 -207.5
185.7229 -207.5
185.7551 -207.5
185.7884 -207.5
185.8174 -207.5
185.8481 -207.5
185.8814 -207.5
185.9148 -207.5
185.9471 -207.5
185.9788 -207.5
186.0101 -207.5
186.0435 -207.5
186.0744 -207.5
186.1041 -207.5
186.1334 -207.5
186.1666 -207.5
186.1999 -207.5
186.2309 -207.5
186.2605 -207.5
186.2939 -207.5
186.3233 -207.5
186.3566 -207.5
186.3896 -207.5
186.4212 -207.5
186.4528 -207.5
186.4832 -207.5
186.5165 -207.5
186.5498 -207.5
186.5809 -207.5
186.6111 -207.5
186.6424 -207.5
186.6758 -207.5
186.7091 -207.5
186.739 -207.5
186.7703 -207.5
186.8037 -207.5
186.837 -207.5
186.867 -207.5
186.898 -207.5
186.9278 -207.5
186.961 -207.5
186.9943 -207.5
187.0277 -207.5
187.0576 -207.5
187.0864 -207.5
187.1183 -207.5
187.1517 -207.5
187.185 -207.5
187.2183 -207.5
187.2516 -207.5
187.285 -207.5
187.3177 -207.5
187.3479 -207.5
187.3775 -207.5
187.4094 -207.5
187.4427 -207.5
187.4745 -207.5
187.507 -207.5
187.5403 -207.5
187.5737 -207.5
187.607 -207.5
187.6403 -207.5
187.6703 -207.5
187.7037 -207.5
187.733 -207.5
187.7663 -207.5
187.7974 -207.5
187.8307 -207.5
187.8628 -207.5
187.8955 -207.5
187.9288 -207.5
187.9615 -207.5
187.9949 -207.5
188.0248 -207.5
188.0578 -207.5
188.0911 -207.5
188.1244 -207.5
188.1578 -207.5
188.1911 -207.5
188.2244 -207.5
188.2578 -207.5
188.2911 -207.5
188.3244 -207.5
188.3578 -207.5
188.3911 -207.5
188.4244 -207.5
188.4578 -207.5
188.4911 -207.5
188.5244 -207.5
188.5578 -207.5
188.5911 -207.5
188.6244 -207.5
188.6578 -207.5
188.6907 -207.5
188.724 -207.5
188.7536 -207.5
188.7835 -207.5
188.8168 -207.5
188.846 -207.5
188.8779 -207.5
188.9112 -207.5
188.94 -207.5
188.9733 -207.5
189.0028 -207.5
189.0324 -207.5
189.0641 -207.5
189.095 -207.5
189.1283 -207.5
189.1617 -207.5
189.1936 -207.5
189.2238 -207.5
189.2572 -207.5
189.2905 -207.5
189.3227 -207.5
189.3524 -207.5
189.3857 -207.5
189.419 -207.5
189.4524 -207.7
189.4857 -207.7
189.519 -207.95
189.5524 -208.35
189.5857 -209.05
189.619 -209.7
189.6524 -210.1
189.6857 -210.1
189.719 -210.8
189.7524 -211
189.7852 -211
189.8159 -211.2
189.8479 -211.45
189.8813 -211.45
189.9146 -211.45
189.9444 -211.45
189.9745 -211.45
190.0044 -211.45
190.0377 -211.45
190.07 -211.45
190.1008 -211.45
190.1321 -211.45
190.1655 -211.45
190.1988 -211.45
190.2282 -211.45
190.258 -211.45
190.2865 -211.45
190.3198 -211.45
190.3531 -211.45
190.384 -211.45
190.4174 -211.45
190.4471 -211.45
190.4787 -211.45
190.512 -211.45
190.5419 -211.45
190.5737 -211.45
190.6038 -211.45
190.6363 -211.45
190.6697 -211.45
190.7023 -211.45
190.7338 -211.45
190.7643 -211.45
190.7969 -211.45
190.8302 -211.45
190.8622 -211.45
190.892 -211.45
190.9239 -211.65
190.9572 -211.85
190.9906 -212.3
191.0203 -212.3
191.0536 -212.5
191.084 -212.5
191.1163 -212.5
191.1496 -212.5
191.1814 -212.5
191.2141 -212.5
191.2474 -212.5
191.2797 -212.5
191.313 -212.5
191.3434 -212.5
191.3752 -212.5
191.4082 -212.5
191.4372 -212.75
191.4706 -212.75
191.5008 -213.2
191.5309 -213.85
191.563 -213.85
191.5963 -214.05
191.6296 -214.5
191.662 -214.5
191.6926 -214.7
191.7215 -215.15
191.7522 -215.15
191.7855 -215.35
191.8188 -215.6
191.8522 -215.6
191.8841 -215.6
191.9147 -215.6
191.9481 -215.6
191.9814 -215.6
192.0125 -215.6
192.0437 -215.6
192.0753 -215.6
192.1086 -215.6
192.1408 -215.6
192.1738 -215.6
192.2021 -215.6
192.2349 -215.6
192.2682 -215.6
192.2968 -215.6
192.3267 -215.6
192.3568 -215.6
192.3901 -215.6
192.4234 -215.6
192.4564 -215.6
192.487 -215.6
192.52 -215.6
192.5525 -215.6
192.5858 -215.6
192.6156 -215.6
192.646 -215.6
192.679 -215.6
192.7124 -215.6
192.7457 -215.6
192.7741 -215.6
192.8072 -215.6
192.8384 -215.6
192.869 -215.6
192.9023 -215.6
192.9355 -215.6
192.9667 -215.6
193.0001 -215.6
193.0318 -215.6
193.0651 -215.6
193.0981 -215.6
193.1313 -215.6
193.16 -215.6
193.1919 -215.6
193.2252 -215.6
193.2551 -215.6
193.2876 -215.6
193.3187 -215.6
193.3521 -215.6
193.3854 -215.6
193.4158 -215.6
193.4454 -215.6
193.4755 -215.6
193.5087 -215.6
193.5421 -215.6
193.5754 -215.6
193.6046 -215.6
193.6357 -215.6
193.6663 -215.6
193.6996 -215.6
193.7284 -215.6
193.7617 -215.6
193.7937 -215.6
193.827 -215.6
193.8603 -215.6
193.8923 -215.6
193.9256 -215.6
193.959 -215.6
193.99 -215.6
194.0233 -215.6
194.0567 -215.6
194.0892 -215.6
194.1189 -215.6
194.1518 -215.6
194.1852 -215.6
194.2169 -215.6
194.2474 -215.6
194.2807 -215.6
194.3103 -215.6
194.3437 -215.6
194.3756 -215.6
194.4047 -215.6
194.4355 -215.6
194.4654 -215.6
194.4987 -215.6
194.5321 -215.6
194.5609 -215.6
194.5909 -215.6
194.6242 -215.6
194.6576 -215.6
194.6905 -215.6
194.7236 -215.6
194.7548 -215.6
194.7859 -215.6
194.8192 -215.6
194.8487 -215.6
194.8821 -215.6
194.9126 -215.6
194.9459 -215.6
194.9793 -215.6
195.0126 -215.6
195.0459 -215.6
195.0765 -215.6
195.1098 -215.6
195.1432 -215.6
195.174 -215.6
195.205 -215.6
195.2364 -215.6
195.2683 -215.6
195.3016 -215.6
195.3322 -215.6
195.3623 -215.6
195.3931 -215.6
195.4261 -215.6
195.4594 -215.6
195.4905 -215.6
195.5205 -215.6
195.5528 -215.6
195.5841 -215.6
195.6175 -215.6
195.6475 -215.6
195.6808 -215.6
195.7112 -215.6
195.7431 -215.6
195.7765 -215.6
195.8086 -215.6
195.838 -215.6
195.8695 -215.6
195.9028 -215.6
195.9362 -215.6
195.9671 -215.6
196.0005 -215.6
196.03 -215.6
196.0627 -215.6
196.096 -215.6
196.1293 -215.6
196.159 -215.6
196.1887 -215.6
196.2204 -215.6
196.2538 -215.6
196.2871 -215.6
196.317 -215.6
196.3463 -215.6
196.3756 -215.6
196.409 -215.6
196.4391 -215.6
196.4688 -215.6
196.5009 -215.6
196.5342 -215.6
196.5675 -215.6
196.5996 -215.6
196.6302 -215.6
196.6604 -215.6
196.689 -215.6
196.7224 -215.6
196.7526 -215.6
196.7829 -215.6
196.8163 -215.6
196.8496 -215.6
196.8829 -215.6
196.9155 -215.6
196.9468 -215.6
196.9751 -215.6
197.0056 -215.6
197.0389 -215.6
197.0685 -215.6
197.1004 -215.6
197.133 -215.6
197.1629 -215.6
197.1962 -215.6
197.2255 -215.6
197.2546 -215.6
197.2845 -215.6
197.3167 -215.6
197.35 -215.6
197.3808 -215.6
197.4118 -215.6
197.4432 -215.6
197.4736 -215.6
197.507 -215.6
197.5403 -215.6
197.5699 -215.6
197.6001 -215.6
197.6324 -215.6
197.6657 -215.6
197.699 -215.6
197.7281 -215.6
197.7583 -215.6
197.7917 -215.6
197.825 -215.6
197.8545 -215.6
197.8878 -215.6
197.9194 -215.6
197.9527 -215.6
197.9861 -215.6
198.0158 -215.6
198.0489 -215.6
198.0798 -215.6
198.1096 -215.6
198.1429 -215.6
198.1762 -215.6
198.2075 -215.6
198.2393 -215.6
198.2727 -215.6
198.306 -215.6
198.3393 -215.6
198.3696 -215.6
198.3992 -215.6
198.4325 -215.6
198.4659 -215.6
198.4988 -215.6
198.5304 -215.6
198.5617 -215.6
198.5909 -215.6
198.6242 -215.6
198.6575 -215.6
198.6896 -215.6
198.7197 -215.6
198.7498 -215.6
198.7832 -215.6
198.8144 -215.6
198.8477 -215.6
198.8767 -215.6
198.9073 -215.6
198.9407 -215.6
198.9713 -215.6
199.0041 -215.6
199.0337 -215.6
199.064 -215.6
199.0974 -215.6
199.1293 -215.6
199.1598 -215.6
199.1931 -215.6
199.2262 -215.6
199.2596 -215.6
199.2915 -215.6
199.3237 -215.6
199.3541 -215.6
199.3848 -215.6
199.4181 -215.6
199.4472 -215.6
199.4781 -215.6
199.5097 -215.6
199.5384 -215.6
199.5718 -215.6
199.6051 -215.6
199.6335 -215.6
199.6668 -215.6
199.697 -215.6
199.7303 -215.6
199.7616 -215.6
199.7933 -215.6
199.8243 -215.6
199.8563 -215.6
199.8896 -215.6
199.923 -215.6
199.9556 -215.6
199.9854 -215.6
200.0143 -215.6
200.0477 -215.6
200.0767 -215.8
200.1076 -215.8
200.1367 -215.8
200.1681 -215.8
200.2014 -215.8
200.2323 -215.8
200.2641 -215.8
200.2974 -215.8
200.3308 -215.8
200.3641 -215.8
200.3974 -215.8
200.429 -215.8
200.4615 -215.8
200.4929 -215.8
200.5262 -215.8
200.5573 -215.8
200.5869 -215.8
200.6162 -215.8
200.6495 -215.8
200.6828 -215.8
200.7124 -215.8
200.7458 -215.8
200.7791 -215.8
200.8125 -215.8
200.8458 -215.8
200.8757 -215.8
200.9057 -215.8
200.939 -215.8
200.9702 -215.8
201.0035 -215.8
201.0329 -215.8
201.0651 -215.8
201.0964 -215.8
201.1261 -215.8
201.1594 -215.8
201.1928 -215.8
201.2247 -215.8
201.254 -215.8
201.2842 -215.8
201.3175 -215.8
201.3509 -215.8
201.38 -215.8
201.4115 -215.8
201.4402 -215.8
201.4735 -215.8
201.5069 -215.8
201.5362 -215.8
201.5665 -215.8
201.5998 -215.8
201.6331 -215.8
201.6625 -215.8
201.6922 -215.8
201.7211 -215.8
201.7536 -215.8
201.7869 -215.8
201.82 -215.8
201.8533 -215.8
201.8853 -215.8
201.9151 -215.8
201.9484 -215.8
201.9774 -215.8
202.0062 -215.8
202.0396 -215.8
202.069 -215.8
202.1024 -215.8
202.134 -215.8
202.1642 -215.8
202.1975 -215.8
202.2308 -215.8
202.2641 -215.8
202.2928 -215.8
202.3238 -215.8
202.3534 -215.8
202.3825 -215.8
202.4158 -215.8
202.4461 -215.8
202.4795 -215.8
202.5121 -215.8
202.5455 -215.8
202.5788 -215.8
202.6102 -215.8
202.642 -215.8
202.6714 -215.8
202.7021 -215.8
202.7354 -215.8
202.7678 -215.8
202.8001 -215.8
202.83 -215.8
202.8596 -215.8
202.8929 -215.8
202.9235 -215.8
202.9568 -215.8
202.9899 -215.8
203.0214 -215.8
203.0547 -215.8
203.0867 -215.8
203.1163 -215.8
203.1493 -215.8
203.1816 -215.8
203.2149 -215.8
203.2475 -215.8
203.2785 -215.8
203.3078 -215.8
203.3384 -215.8
203.3718 -215.8
203.4027 -215.8
203.4328 -215.8
203.463 -215.8
203.4939 -215.8
203.5272 -215.8
203.5605 -215.8
203.5939 -215.8
203.6268 -215.8
203.6577 -215.8
203.691 -215.8
203.7199 -215.8
203.7503 -215.8
203.7799 -215.6
203.8125 -215.15
203.8458 -215.15
203.8791 -214.5
203.9125 -213.2
203.9443 -213.2
203.9767 -211.45
204.01 -209.7
204.0424 -209.7
204.0756 -207.7
204.1065 -205.55
204.1363 -205.55
204.1697 -203.55
204.1998 -202.25
204.23 -202.25
204.2634 -201.15
204.2935 -200.05
204.3268 -200.05
204.3563 -199.2
204.3872 -198.1
204.4205 -198.1
204.45 -197.45
204.4834 -196.35
204.5167 -196.35
204.5477 -195.5
204.5811 -194.6
204.6119 -194.6
204.6453 -193.95
204.6786 -193.3
204.7083 -193.3
204.7415 -192.45
204.7709 -191.75
204.8042 -191.75
204.8344 -191.35
204.8666 -191.35
204.8984 -191.35
204.9306 -191.35
204.9639 -191.35
204.9962 -191.35
205.0296 -191.35
205.0609 -191.35
205.0908 -191.35
205.1242 -191.35
205.1518 -191.35
205.1801 -191.35
205.2086 -191.35
205.2416 -191.35
205.2749 -191.35
205.3031 -191.35
205.3337 -191.35
205.3623 -191.35
205.3918 -191.35
205.4249 -191.35
205.4536 -191.35
205.482 -191.35
205.5102 -191.35
205.54 -191.35
205.5691 -191.35
205.6024 -191.35
205.6354 -191.35
205.6636 -191.35
205.6954 -191.35
205.7231 -191.35
205.7564 -191.35
205.7843 -191.35
205.8119 -191.35
205.8397 -191.35
205.8677 -191.35
205.9011 -191.35
205.9304 -191.35
205.9582 -191.35
205.9868 -191.35
206.0151 -191.35
206.0433 -191.35
206.0766 -191.35
206.107 -191.35
206.1343 -191.35
206.1667 -191.35
206.1976 -191.35
206.2309 -191.35
206.2594 -191.35
206.2899 -191.35
206.3172 -191.35
206.3454 -191.35
206.3732 -191.35
206.4062 -191.35
206.4395 -191.35
206.469 -191.35
206.499 -191.35
206.5322 -191.35
206.5655 -191.35
206.5924 -191.35
206.6205 -191.35
206.6528 -191.35
206.6804 -191.35
206.7135 -191.35
206.7416 -191.35
206.7701 -191.35
206.7992 -191.35
206.8275 -191.35
206.8543 -191.35
206.8877 -191.35
206.9162 -191.35
206.9495 -191.35
206.9776 -191.35
207.0059 -191.35
207.0388 -191.35
207.0678 -191.35
207.097 -191.35
207.1252 -191.35
207.1564 -191.35
207.1897 -191.35
207.2171 -191.35
207.2453 -191.35
207.2749 -191.35
207.3025 -191.35
207.3358 -191.35
207.3647 -191.35
207.3938 -191.35
207.4226 -191.35
207.4515 -191.35
207.4848 -191.35
207.5163 -191.35
207.5452 -191.35
207.5732 -191.35
207.6026 -191.35
207.6359 -191.35
207.6628 -191.35
207.6911 -191.35
207.7193 -191.35
207.7471 -191.35
207.7774 -191.35
207.8103 -191.35
207.8373 -191.35
207.8652 -191.35
207.8931 -191.35
207.9208 -191.35
207.9503 -191.35
207.9837 -191.35
208.0108 -191.35
208.0391 -191.35
208.0676 -191.35
208.1009 -191.35
208.1342 -191.35
208.1641 -191.35
208.1919 -191.35
208.2209 -191.35
208.2499 -191.35
208.2832 -191.35
208.311 -191.35
208.3397 -191.35
208.3676 -191.35
208.3953 -191.35
208.4237 -191.35
208.4562 -191.35
208.4857 -191.35
208.516 -191.35
208.5447 -191.35
208.5738 -191.35
208.6071 -191.35
208.6346 -191.35
208.6626 -191.35
208.6904 -191.35
208.7176 -191.35
208.7457 -191.35
208.7789 -191.35
208.8072 -191.35
208.8356 -191.35
208.8689 -191.35
208.9016 -191.35
208.9349 -191.35
208.963 -191.35
208.9945 -191.35
209.0224 -191.35
209.0509 -191.35
209.0843 -191.35
209.1131 -191.35
209.1413 -191.35
209.1691 -191.35
209.1972 -191.35
209.2305 -191.35
209.2639 -191.35
209.2919 -191.35
209.3199 -191.35
209.3469 -191.35
209.375 -191.35
209.4029 -191.35
209.4349 -191.35
209.463 -191.35
209.4915 -191.35
209.5197 -191.35
209.5504 -191.35
209.5787 -191.35
209.6115 -191.35
209.6448 -191.35
209.6757 -191.35
209.7037 -191.35
209.7346 -191.35
209.768 -191.35
209.7955 -191.35
209.825 -191.35
209.8529 -191.35
209.8853 -191.35
209.9186 -191.35
209.9469 -191.35
209.9802 -191.35
210.0111 -191.35
210.0396 -191.35
210.073 -191.35
210.1019 -191.35
210.1315 -191.35
210.1599 -191.35
210.1894 -191.35
210.2227 -191.35
210.2526 -191.35
210.2814 -191.35
210.3092 -191.35
210.3367 -191.35
210.3658 -191.35
210.3992 -191.35
210.432 -191.35
210.4602 -191.35
210.4883 -191.35
210.519 -191.35
210.5523 -191.35
210.5807 -191.35
210.6109 -191.35
210.6395 -191.35
210.6683 -191.35
210.7016 -191.35
210.7316 -191.35
210.7602 -191.35
210.7883 -191.35
210.817 -191.35
210.8458 -191.35
210.8791 -191.35
210.9112 -191.35
210.9441 -191.35
210.972 -191.35
211.0004 -191.35
211.0338 -191.35
211.061 -191.35
211.0943 -191.35
211.1232 -191.35
211.1566 -191.35
211.1899 -191.35
211.223 -191.35
211.2511 -191.35
211.2803 -191.35
211.3132 -191.35
211.3456 -191.35
211.3762 -191.35
211.4042 -191.35
211.4317 -191.35
211.465 -191.35
211.4984 -191.35
211.5253 -191.35
211.5559 -191.35
211.5843 -191.35
211.6176 -191.35
211.651 -191.35
211.6809 -191.35
211.709 -191.35
211.7389 -191.35
211.7695 -191.35
211.8027 -191.35
211.8335 -191.35
211.862 -191.35
211.8953 -191.35
211.9235 -191.35
211.9569 -191.35
211.9863 -191.35
212.0194 -191.35
212.0484 -191.35
212.0762 -191.35
212.1095 -191.35
212.1376 -191.35
212.166 -191.35
212.1938 -191.35
212.2213 -191.35
212.2501 -191.35
212.2834 -191.35
212.3131 -191.35
212.3464 -191.35
212.3758 -191.35
212.4074 -191.35
212.4406 -191.35
212.4684 -191.35
212.4988 -191.35
212.526 -191.35
212.5557 -191.35
212.5836 -191.35
212.617 -191.35
212.6458 -191.35
212.6737 -191.35
212.7013 -191.35
212.7343 -191.35
212.7677 -191.35
212.8007 -191.35
212.8305 -191.35
212.8585 -191.35
212.888 -191.35
212.9213 -191.35
212.95 -191.35
212.9787 -191.35
213.0064 -191.35
213.0353 -191.35
213.0682 -191.35
213.096 -191.35
213.1247 -191.35
213.1566 -191.35
213.185 -191.35
213.2133 -191.35
213.2466 -191.35
213.2758 -191.35
213.3072 -191.35
213.3346 -191.35
213.3636 -191.35
213.3969 -191.35
213.4242 -191.35
213.4534 -191.35
213.4863 -191.35
213.5145 -191.35
213.5478 -191.35
213.5811 -191.35
213.608 -191.35
213.6396 -191.35
213.6687 -191.35
213.7016 -191.35
213.7349 -191.35
213.7643 -191.35
213.793 -191.35
213.8225 -191.35
213.8559 -191.35
213.883 -191.35
213.9111 -191.35
213.9422 -191.35
213.9718 -191.35
214.0052 -191.35
214.0339 -191.35
214.0622 -191.35
214.0901 -191.35
214.1227 -191.35
214.156 -191.35
214.185 -191.35
214.2135 -191.35
214.2429 -191.35
214.2717 -191.35
214.3051 -191.35
214.334 -191.35
214.3673 -191.35
214.3965 -191.35
214.4246 -191.35
214.458 -191.35
214.4868 -191.35
214.514 -191.35
214.5418 -191.35
214.5702 -191.35
214.598 -191.35
214.6314 -191.35
214.6601 -191.35
214.6876 -191.35
214.717 -191.35
214.749 -191.35
214.7822 -191.35
214.8145 -191.35
214.8421 -191.35
214.8693 -191.35
214.8976 -191.35
214.9263 -191.35
214.9596 -191.35
214.9886 -191.35
215.0169 -191.35
215.0447 -191.35
215.0728 -191.35
215.1043 -191.35
215.1376 -191.35
215.1672 -191.35
215.1958 -191.35
215.2236 -191.35
215.252 -191.35
215.2853 -191.35
215.3142 -191.35
215.3449 -191.35
215.3767 -191.35
215.41 -191.35
215.4434 -191.35
215.4719 -191.35
215.4999 -191.35
215.5283 -191.35
215.5616 -191.35
215.5938 -191.35
215.6241 -191.35
215.652 -191.35
215.6792 -191.35
215.7104 -191.35
215.7437 -191.35
215.7756 -191.35
215.8037 -191.35
215.8317 -191.35
215.8591 -191.35
215.8924 -191.35
215.9258 -191.35
215.9546 -191.35
215.9823 -191.35
216.011 -191.35
216.0418 -191.35
216.0751 -191.35
216.1055 -191.35
216.133 -191.35
216.1609 -191.35
216.1895 -191.35
216.2229 -191.35
216.2509 -191.35
216.2813 -191.35
216.3096 -191.35
216.3429 -191.35
216.3762 -191.35
216.4096 -191.35
216.4373 -191.35
216.4655 -191.35
216.4928 -191.35
216.5262 -191.35
216.5545 -191.35
216.5821 -191.35
216.6099 -191.35
216.6432 -191.35
216.6763 -191.35
216.7091 -191.35
216.7383 -191.35
216.7654 -191.35
216.7935 -191.35
216.8269 -191.35
216.857 -191.35
216.8861 -191.35
216.9153 -191.35
216.9457 -191.35
216.979 -191.35
217.0081 -191.35
217.038 -191.35
217.0663 -191.35
217.0997 -191.35
217.1323 -191.35
217.1607 -191.35
217.1895 -191.35
217.2165 -191.35
217.2454 -191.35
217.2787 -191.35
217.3121 -191.35
217.3411 -191.35
217.3717 -191.35
217.402 -191.35
217.4303 -191.35
217.4636 -191.35
217.4966 -191.35
217.5244 -191.35
217.5531 -191.35
217.5835 -191.35
217.6168 -191.35
217.6446 -191.35
217.6719 -191.35
217.7 -191.35
217.7286 -191.35
217.7558 -191.35
217.7892 -191.35
217.817 -191.35
217.8438 -191.35
217.8721 -191.35
217.9054 -191.35
217.9387 -191.35
217.9679 -191.35
217.9984 -191.35
218.026 -191.35
218.0548 -191.35
218.0882 -191.35
218.1215 -191.35
218.1517 -191.35
218.1806 -191.35
218.2092 -191.35
218.2425 -191.35
218.2753 -191.35
218.3064 -191.35
218.3367 -191.35
218.3646 -191.35
218.3974 -191.35
218.4251 -191.35
218.4534 -191.35
218.4842 -191.35
218.5138 -191.35
218.5433 -191.35
218.5766 -191.35
218.6037 -191.35
218.6328 -191.35
218.6633 -191.35
218.6911 -191.35
218.7244 -191.35
218.7528 -191.35
218.7815 -191.35
218.8103 -191.35
218.8423 -191.35
218.8757 -191.35
218.9064 -191.35
218.9339 -191.35
218.9633 -191.35
218.9919 -191.35
219.0244 -191.35
219.0578 -191.35
219.0864 -191.35
219.1142 -191.35
219.1437 -191.35
219.177 -191.35
219.2063 -191.35
219.2353 -191.35
219.2643 -191.35
219.294 -191.35
219.3273 -191.35
219.3565 -191.35
219.3851 -191.35
219.4129 -191.35
219.4405 -191.35
219.47 -191.35
219.5032 -191.35
219.5314 -191.35
219.5647 -191.35
219.5954 -191.35
219.6247 -191.35
219.658 -191.35
219.6861 -191.35
219.7154 -191.35
219.7487 -191.35
219.7777 -191.35
219.811 -191.35
219.8444 -191.35
219.8733 -191.35
219.9022 -191.35
219.9295 -191.35
219.9629 -191.35
219.9908 -191.35
220.018 -191.35
220.0472 -191.35
220.0753 -191.35
220.1022 -191.35
220.1356 -191.35
220.1681 -191.35
220.1963 -191.35
220.2256 -191.35
220.2561 -191.35
220.2894 -191.35
220.3178 -191.35
220.3457 -191.35
220.3733 -191.35
220.4021 -191.35
220.4303 -191.35
220.4634 -191.35
220.4919 -191.35
220.5203 -191.35
220.5481 -191.35
220.577 -191.35
220.6053 -191.35
220.6387 -191.35
220.6664 -191.35
220.6953 -191.35
220.7234 -191.35
220.7535 -191.35
220.7868 -191.35
220.8179 -191.35
220.8465 -191.35
220.8757 -191.35
220.9037 -191.35
220.9371 -191.35
220.9651 -191.35
220.9926 -191.35
221.0205 -191.35
221.0496 -191.35
221.0775 -191.35
221.1108 -191.35
221.1405 -191.35
221.1694 -191.35
221.1985 -191.35
221.2318 -191.35
221.2648 -191.35
221.2928 -191.35
221.321 -191.35
221.3487 -191.35
221.3767 -191.35
221.4053 -191.35
221.4387 -191.35
221.4677 -191.35
221.4971 -191.35
221.524 -191.35
221.5526 -191.35
221.5859 -191.35
221.6128 -191.35
221.641 -191.35
221.6703 -191.35
221.6983 -191.35
221.7273 -191.35
221.7607 -191.35
221.7887 -191.35
221.819 -191.35
221.8482 -191.35
221.877 -191.35
221.9103 -191.35
221.9384 -191.35
221.9658 -191.35
221.9947 -191.35
222.0235 -191.35
222.0514 -191.35
222.0847 -191.35
222.1124 -191.35
222.1395 -191.35
222.1712 -191.35
222.2037 -191.35
222.2371 -191.35
222.2687 -191.35
222.2965 -191.35
222.3247 -191.35
222.357 -191.35
222.3904 -191.35
222.4193 -191.35
222.4488 -191.35
222.4778 -191.35
222.5053 -191.35
222.5332 -191.35
222.5665 -191.35
222.5943 -191.35
222.6224 -191.35
222.6534 -191.35
222.6825 -191.35
222.7159 -191.35
222.7454 -191.35
222.7737 -191.35
222.8022 -191.35
222.8315 -191.35
222.8602 -191.35
222.8936 -191.35
222.9229 -191.35
222.9563 -191.35
222.9843 -191.35
223.016 -191.35
223.0493 -191.35
223.0769 -191.35
223.1076 -191.35
223.1375 -191.35
223.1663 -191.35
223.1996 -191.35
223.2296 -191.35
223.258 -191.35
223.287 -191.35
223.3148 -191.35
223.3437 -191.35
223.377 -191.35
223.4051 -191.35
223.4333 -191.35
223.4611 -191.35
223.4881 -191.35
223.5157 -191.35
223.5491 -191.35
223.5768 -191.35
223.606 -191.35
223.6341 -191.35
223.6611 -191.35
223.69 -191.35
223.7233 -191.35
223.7508 -191.35
223.7819 -191.35
223.8098 -191.35
223.8373 -191.35
223.8707 -191.35
223.899 -191.35
223.9323 -191.35
223.9621 -191.35
223.9913 -191.35
224.0247 -191.35
224.0536 -191.35
224.0845 -191.35
224.1122 -191.35
224.1414 -191.35
224.1747 -191.35
224.2026 -191.35
224.2308 -191.35
224.2586 -191.35
224.2868 -191.35
224.315 -191.35
224.3483 -191.35
224.3751 -191.35
224.4037 -191.35
224.4318 -191.35
224.4596 -191.35
224.493 -191.35
224.5207 -191.35
224.5497 -191.35
224.5791 -191.35
224.6082 -191.35
224.6416 -191.35
224.6697 -191.35
224.6992 -191.35
224.7279 -191.35
224.7564 -191.35
224.7841 -191.35
224.8174 -191.35
224.8458 -191.35
224.8736 -191.35
224.9021 -191.35
224.9319 -191.35
224.9618 -191.35
224.9951 -191.35
225.0232 -191.35
225.0565 -191.35
225.087 -191.35
225.1161 -191.35
225.1494 -191.35
225.1789 -191.35
225.2089 -191.35
225.2381 -191.35
225.2655 -191.35
225.2988 -191.35
225.3266 -191.35
225.3536 -191.35
225.3812 -191.35
225.4105 -191.35
225.4438 -191.35
225.4757 -191.35
225.5069 -191.35
225.5403 -191.35
225.5693 -191.35
225.6026 -191.35
225.6309 -191.35
225.6635 -191.35
225.6917 -191.35
225.7232 -191.35
225.7565 -191.35
225.7898 -191.35
225.8169 -191.35
225.8447 -191.35
225.8727 -191.35
225.9051 -191.35
225.9337 -191.35
225.962 -191.35
225.9904 -191.35
226.0182 -191.35
226.0464 -191.35
226.0798 -191.35
226.1082 -191.35
226.1412 -191.35
226.1729 -191.35
226.2063 -191.35
226.2396 -191.35
226.2726 -191.35
226.3005 -191.35
226.3335 -191.35
226.3611 -191.35
226.3944 -191.35
226.4231 -191.35
226.4527 -191.35
226.4807 -191.35
226.5141 -191.35
226.5474 -191.35
226.5753 -191.35
226.607 -191.35
226.6352 -191.35
226.6675 -191.35
226.7008 -191.35
226.7295 -191.35
226.7575 -191.35
226.7856 -191.35
226.8175 -191.35
226.8508 -191.35
226.8789 -191.35
226.9057 -191.35
226.9337 -191.35
226.9625 -191.35
226.9947 -191.35
227.0225 -191.35
227.0538 -191.35
227.0809 -191.35
227.1093 -191.35
227.1389 -191.35
227.1723 -191.35
227.2007 -191.35
227.2285 -191.35
227.2587 -191.35
227.2873 -191.35
227.3158 -191.35
227.3492 -191.35
227.3771 -191.35
227.4099 -191.35
227.4377 -191.35
227.4652 -191.35
227.4985 -191.35
227.5266 -191.35
227.5555 -191.35
227.5845 -191.35
227.6127 -191.35
227.6461 -191.35
227.6777 -191.35
227.7045 -191.35
227.733 -191.35
227.7643 -191.35
227.7971 -191.35
227.8279 -191.35
227.856 -191.35
227.8828 -191.35
227.9109 -191.35
227.9389 -191.35
227.9716 -191.35
228.0037 -191.35
228.0317 -191.35
228.059 -191.35
228.0899 -191.35
228.1232 -191.35
228.1565 -191.35
228.1857 -191.35
228.2164 -191.35
228.2458 -191.35
228.279 -191.35
228.3068 -191.35
228.3385 -191.35
228.3669 -191.35
228.3946 -191.35
228.4254 -191.35
228.4587 -191.35
228.4869 -191.35
228.5161 -191.35
228.5457 -191.35
228.5732 -191.35
228.6065 -191.35
228.6349 -191.35
228.6634 -191.35
228.6913 -191.35
228.7212 -191.35
228.7546 -191.35
228.7846 -191.35
228.8134 -191.35
228.8425 -191.35
228.8694 -191.35
228.9026 -191.35
228.9309 -191.35
228.9594 -191.35
228.9881 -191.35
229.0174 -191.35
229.0507 -191.35
229.084 -191.35
229.1169 -191.35
229.1434 -191.35
229.1715 -191.35
229.201 -191.35
229.2343 -191.35
229.2662 -191.35
229.2966 -191.35
229.33 -191.35
229.3606 -191.35
229.3939 -191.35
229.4223 -191.35
229.4507 -191.35
229.4793 -191.35
229.5068 -191.35
229.5357 -191.35
229.569 -191.35
229.5967 -191.35
229.6249 -191.35
229.6525 -191.35
229.6799 -191.35
229.7083 -191.35
229.7417 -191.35
229.7693 -191.35
229.8013 -191.35
229.8291 -191.35
229.8568 -191.35
229.8901 -191.35
229.9181 -191.35
229.9448 -191.35
229.9731 -191.35
230.0027 -191.35
230.0358 -191.35
230.0685 -191.35
230.0975 -191.35
230.1254 -191.35
230.1548 -191.35
230.1881 -191.35
230.2155 -191.35
230.2488 -191.35
230.2802 -191.35
230.3076 -191.35
230.3409 -191.35
230.3689 -191.35
230.3961 -191.35
230.4247 -191.35
230.4523 -191.35
230.4803 -191.35
230.5131 -191.35
230.5406 -191.35
230.5677 -191.35
230.5995 -191.35
230.6277 -191.35
230.6549 -191.35
230.6883 -191.35
230.7167 -191.35
230.7461 -191.35
230.7757 -191.35
230.809 -191.35
230.8423 -191.35
230.8709 -191.35
230.899 -191.35
230.9295 -191.35
230.958 -191.35
230.9873 -191.35
231.0206 -191.35
231.0485 -191.35
231.077 -191.35
231.1049 -191.35
231.134 -191.35
231.1633 -191.35
231.1967 -191.35
231.2254 -191.35
231.2538 -191.35
231.2814 -191.35
231.3092 -191.35
231.3401 -191.35
231.3734 -191.35
231.4016 -191.35
231.4291 -191.35
231.4569 -191.35
231.4894 -191.35
231.522 -191.35
231.5498 -191.35
231.579 -191.35
231.6071 -191.35
231.6343 -191.35
231.6634 -191.35
231.6967 -191.35
231.7249 -191.35
231.7544 -191.35
231.785 -191.35
231.8128 -191.35
231.8461 -191.35
231.8755 -191.35
231.9031 -191.35
231.9314 -191.35
231.9595 -191.35
231.9923 -191.35
232.0256 -191.35
232.0543 -191.35
232.0815 -191.35
232.1095 -191.35
232.1429 -191.35
232.1762 -191.35
232.2046 -191.35
232.233 -191.35
232.2599 -191.35
232.2923 -191.35
232.3256 -191.35
232.3532 -191.35
232.3812 -191.35
232.4092 -191.35
232.437 -191.35
232.466 -191.35
232.4989 -191.35
232.5296 -191.35
232.5607 -191.35
232.5933 -191.35
232.6266 -191.35
232.6599 -191.35
232.6879 -191.35
232.7154 -191.35
232.7435 -191.35
232.7762 -191.35
232.8084 -191.35
232.8368 -191.35
232.8651 -191.35
232.8921 -191.35
232.9219 -191.35
232.9532 -191.35
232.9866 -191.35
233.0171 -191.35
233.0459 -191.35
233.0737 -191.35
233.1022 -191.35
233.1352 -191.35
233.1622 -191.35
233.19 -191.35
233.2187 -191.35
233.2461 -191.35
233.2751 -191.35
233.3085 -191.35
233.3371 -191.35
233.3682 -191.35
233.3994 -191.35
233.428 -191.35
233.4613 -191.35
233.4909 -191.35
233.5193 -191.35
233.5481 -191.35
233.5765 -191.35
233.6039 -191.35
233.6372 -191.35
233.6703 -191.35
233.7007 -191.35
233.7289 -191.35
233.7575 -191.35
233.7895 -191.35
233.8181 -191.35
233.8463 -191.35
233.8734 -191.35
233.9022 -191.35
233.9325 -191.35
233.9652 -191.35
233.9943 -191.35
234.0225 -191.35
234.0498 -191.35
234.0797 -191.35
234.1088 -191.35
234.1422 -191.35
234.1711 -191.35
234.2003 -191.35
234.2279 -191.35
234.2565 -191.35
234.2898 -191.35
234.322 -191.35
234.3497 -191.35
234.3772 -191.35
234.4047 -191.35
234.4329 -191.35
234.4613 -191.35
234.4947 -191.35
234.5239 -191.35
234.5559 -191.35
234.5845 -191.35
234.6149 -191.35
234.6483 -191.35
234.6759 -191.35
234.7048 -191.35
234.7328 -191.35
234.7607 -191.35
234.7888 -191.35
234.8222 -191.35
234.8496 -191.35
234.8782 -191.35
234.9062 -191.35
234.9396 -191.35
234.9729 -191.35
235.0044 -191.35
235.0318 -191.35
235.0607 -191.35
235.0918 -191.35
235.1249 -191.35
235.154 -191.35
235.1829 -191.35
235.2121 -191.35
235.2425 -191.35
235.2758 -191.35
235.3024 -191.35
235.3303 -191.35
235.3586 -191.35
235.3862 -191.35
235.4147 -191.35
235.4481 -191.35
235.4804 -191.35
235.513 -191.35
235.5445 -191.35
235.5749 -191.35
235.6082 -191.35
235.6361 -191.35
235.6631 -191.35
235.6919 -191.35
235.7206 -191.35
235.7483 -191.35
235.7816 -191.35
235.8101 -191.35
235.8384 -191.35
235.8674 -191.35
235.8959 -191.35
235.9292 -191.35
235.9626 -191.35
235.991 -191.35
236.0181 -191.35
236.0462 -191.35
236.0766 -191.35
236.1099 -191.35
236.1395 -191.35
236.1686 -191.35
236.1968 -191.35
236.2262 -191.35
236.2596 -191.35
236.2869 -191.35
236.3187 -191.35
236.3463 -191.35
236.3736 -191.35
236.4046 -191.35
236.4374 -191.35
236.4652 -191.35
236.493 -191.35
236.5258 -191.35
236.5568 -191.35
236.5901 -191.35
236.6234 -191.35
236.6513 -191.35
236.679 -191.35
236.7086 -191.35
236.7419 -191.35
236.7717 -191.35
236.8045 -191.35
236.8349 -191.35
236.8671 -191.35
236.9005 -191.35
236.9284 -191.35
236.9562 -191.35
236.9844 -191.35
237.0126 -191.35
237.0419 -191.35
237.0753 -191.35
237.107 -191.35
237.1354 -191.35
237.1632 -191.35
237.1904 -191.35
237.2238 -191.35
237.252 -191.35
237.2809 -191.35
237.3095 -191.35
237.3384 -191.35
237.3701 -191.35
237.4034 -191.35
237.4327 -191.35
237.4623 -191.35
237.4907 -191.35
237.5186 -191.35
237.5459 -191.35
237.5792 -191.35
237.6078 -191.35
237.6346 -191.35
237.6649 -191.35
237.6937 -191.35
237.7215 -191.35
237.7548 -191.35
237.7831 -191.35
237.8101 -191.35
237.8395 -191.35
237.868 -191.35
237.9008 -191.35
237.9288 -191.35
237.9608 -191.35
237.9919 -191.35
238.0212 -191.35
238.0545 -191.35
238.0879 -191.35
238.1157 -191.35
238.1435 -191.35
238.1747 -191.35
238.208 -191.35
238.236 -191.35
238.2676 -191.35
238.3004 -191.35
238.3337 -191.35
238.367 -191.35
238.3967 -191.35
238.4283 -191.35
238.4559 -191.35
238.4842 -191.35
238.5176 -191.35
238.5463 -191.35
238.5745 -191.35
238.6079 -191.35
238.6355 -191.35
238.6688 -191.35
238.6982 -191.35
238.7271 -191.35
238.7562 -191.35
238.7847 -191.35
238.818 -191.35
238.8464 -191.35
238.8763 -191.35
238.9042 -191.35
238.9338 -191.35
238.9671 -191.35
238.9956 -191.35
239.0242 -191.35
239.053 -191.35
239.081 -191.35
239.1144 -191.35
239.1424 -191.35
239.17 -191.35
239.1983 -191.35
239.2305 -191.35
239.263 -191.35
239.2908 -191.35
239.3228 -191.35
239.3511 -191.35
239.3839 -191.35
239.4172 -191.35
239.4444 -191.35
239.475 -191.35
239.5046 -191.35
239.5338 -191.35
239.5672 -191.35
239.5986 -191.35
239.6286 -191.35
239.6595 -191.35
239.6926 -191.35
239.7253 -191.35
239.7552 -191.35
239.7836 -191.35
239.8107 -191.35
239.8399 -191.35
239.8679 -191.35
239.901 -191.35
239.9299 -191.35
239.9599 -191.35
239.9896 -191.35
240.0191 -191.35
240.0525 -191.35
240.0851 -191.35
240.116 -191.35
240.1446 -191.35
240.1726 -191.35
240.206 -191.35
240.2366 -191.35
240.2647 -191.35
240.2941 -191.35
240.3219 -191.35
240.3507 -191.35
240.384 -191.35
240.4169 -191.35
240.4462 -191.35
240.4751 -191.35
240.508 -191.35
240.5414 -191.35
240.5724 -191.35
240.6014 -191.35
240.6293 -191.35
240.6614 -191.35
240.6947 -191.35
240.7224 -191.35
240.7557 -191.35
240.7842 -191.35
240.8125 -191.35
240.8458 -191.35
240.8745 -191.35
240.9045 -191.35
240.9366 -191.35
240.9679 -191.35
241.0012 -191.35
241.0333 -191.35
241.0666 -191.35
241.0949 -191.35
241.1231 -191.35
241.1564 -191.35
241.1841 -191.35
241.2171 -191.35
241.2459 -191.35
241.2738 -191.35
241.3071 -191.35
241.3377 -191.35
241.3646 -191.35
241.397 -191.35
241.4286 -191.35
241.4619 -191.35
241.4911 -191.35
241.5214 -191.35
241.5548 -191.35
241.5843 -191.35
241.6176 -191.35
241.6459 -191.35
241.6741 -191.35
241.7024 -191.35
241.7298 -191.35
241.7578 -191.35
241.7911 -191.35
241.8213 -191.35
241.8536 -191.35
241.8836 -191.35
241.9115 -191.35
241.9448 -191.35
241.9778 -191.35
242.0056 -191.35
242.0344 -191.35
242.0634 -191.35
242.0967 -191.35
242.1269 -191.35
242.1569 -191.35
242.1851 -191.35
242.215 -191.35
242.2484 -191.35
242.276 -191.35
242.3038 -191.35
242.3372 -191.35
242.3659 -191.35
242.3992 -191.35
242.4281 -191.35
242.4559 -191.35
242.4869 -191.35
242.5197 -191.35
242.5522 -191.35
242.5811 -191.35
242.6101 -191.35
242.6371 -191.35
242.6658 -191.35
242.6946 -191.35
242.7279 -191.35
242.7613 -191.35
242.7909 -191.35
242.8188 -191.35
242.849 -191.35
242.8823 -191.35
242.9114 -191.35
242.9442 -191.35
242.9776 -191.35
243.0092 -191.35
243.0425 -191.35
243.0742 -191.35
243.1075 -191.35
243.1408 -191.35
243.1742 -191.35
243.2075 -191.35
243.2403 -191.35
243.2725 -191.35
243.3017 -191.35
243.3317 -191.35
243.3651 -191.35
243.3951 -191.35
243.4263 -191.35
243.457 -191.35
243.4883 -191.35
243.5217 -191.35
243.5536 -191.35
243.5869 -191.35
243.6165 -191.35
243.6463 -191.35
243.6796 -191.35
243.7129 -191.35
243.7432 -191.35
243.7746 -191.35
243.805 -191.35
243.8383 -191.35
243.8716 -191.35
243.8998 -191.35
243.9276 -191.35
243.9552 -191.35
243.9886 -191.35
244.0177 -191.35
244.0459 -191.35
244.0752 -191.35
244.108 -191.35
244.1413 -191.35
244.1717 -191.35
244.2014 -191.35
244.2286 -191.35
244.2586 -191.35
244.2919 -191.35
244.3248 -191.35
244.3538 -191.35
244.3828 -191.35
244.4102 -191.35
244.4436 -191.35
244.4718 -191.35
244.4996 -191.35
244.5304 -191.35
244.5595 -191.35
244.5926 -191.35
244.621 -191.35
244.6493 -191.35
244.6769 -191.35
244.7052 -191.35
244.7335 -191.35
244.7665 -191.35
244.7946 -191.35
244.8226 -191.35
244.85 -191.35
244.8828 -191.35
244.9162 -191.35
244.9495 -191.35
244.9799 -191.35
245.0105 -191.35
245.0385 -191.35
245.0681 -191.35
245.1014 -191.35
245.1291 -191.35
245.1588 -191.35
245.1864 -191.35
245.2143 -191.35
245.2476 -191.35
245.2769 -191.35
245.3065 -191.35
245.3398 -191.35
245.3683 -191.35
245.4009 -191.35
245.4294 -191.35
245.4606 -191.35
245.4883 -191.35
245.52 -191.35
245.5533 -191.35
245.581 -191.35
245.6089 -191.35
245.6415 -191.35
245.6694 -191.35
245.7023 -191.35
245.7307 -191.35
245.7604 -191.35
245.7884 -191.35
245.8168 -191.35
245.8457 -191.35
245.8791 -191.35
245.9081 -191.35
245.9367 -191.35
245.9669 -191.35
245.9999 -191.35
246.0332 -191.35
246.0633 -191.35
246.0916 -191.35
246.1202 -191.35
246.148 -191.35
246.1768 -191.35
246.2101 -191.35
246.2435 -191.35
246.2739 -191.35
246.3018 -191.35
246.3338 -191.35
246.3672 -191.35
246.3977 -191.35
246.427 -191.35
246.4556 -191.35
246.4847 -191.35
246.518 -191.35
246.5464 -191.35
246.5759 -191.35
246.605 -191.35
246.6341 -191.35
246.6675 -191.35
246.7008 -191.35
246.7287 -191.35
246.7557 -191.35
246.7841 -191.35
246.8174 -191.35
246.8488 -191.35
246.8778 -191.35
246.9078 -191.35
246.9396 -191.35
246.973 -191.35
247.002 -191.35
247.0313 -191.35
247.063 -191.35
247.0914 -191.35
247.1247 -191.35
247.1529 -191.35
247.1816 -191.35
247.2116 -191.35
247.2401 -191.35
247.2735 -191.35
247.3008 -191.35
247.3288 -191.35
247.3571 -191.35
247.3842 -191.35
247.4169 -191.35
247.4502 -191.35
247.4795 -191.35
247.5085 -191.35
247.5369 -191.35
247.5658 -191.35
247.5991 -191.35
247.6325 -191.35
247.6594 -191.35
247.6873 -191.35
247.7195 -191.35
247.7495 -191.35
247.7828 -191.35
247.8142 -191.35
247.8411 -191.35
247.8693 -191.35
247.8983 -191.35
247.931 -191.35
247.9588 -191.35
247.9865 -191.35
248.0144 -191.35
248.0466 -191.35
248.0761 -191.35
248.1094 -191.35
248.1389 -191.35
248.1682 -191.35
248.1959 -191.35
248.2284 -191.35
248.2617 -191.35
248.2889 -191.35
248.3175 -191.35
248.3451 -191.35
248.3726 -191.35
248.4011 -191.35
248.4342 -191.35
248.4654 -191.35
248.4944 -191.35
248.5231 -191.35
248.5505 -191.35
248.5794 -191.35
248.6128 -191.35
248.6424 -191.35
248.6717 -191.35
248.701 -191.35
248.7295 -191.35
248.7628 -191.35
248.7958 -191.35
248.824 -191.35
248.8523 -191.35
248.882 -191.35
248.9154 -191.35
248.9439 -191.35
248.9738 -191.35
249.0029 -191.35
249.0315 -191.35
249.0648 -191.35
249.0954 -191.35
249.1234 -191.35
249.1509 -191.35
249.179 -191.35
249.2072 -191.35
249.2405 -191.35
249.2703 -191.35
249.299 -191.35
249.3277 -191.35
249.356 -191.35
249.3893 -191.35
249.4179 -191.35
249.4484 -191.35
249.4762 -191.35
249.5045 -191.35
249.5379 -191.35
249.5701 -191.35
249.5979 -191.35
249.6252 -191.35
249.6538 -191.35
249.6871 -191.35
249.7145 -191.35
249.7424 -191.35
249.7713 -191.35
249.8 -191.35
249.8304 -191.35
249.8638 -191.35
249.8924 -191.35
249.9257 -191.35
249.9552 -191.35
249.9885 -191.35
250.0218 -191.35
250.0499 -191.35
250.0767 -191.35
250.1049 -191.35
250.1323 -191.35
250.1602 -191.35
250.1935 -191.35
250.2211 -191.35
250.2486 -191.35
250.28 -191.35
250.3079 -191.35
250.3366 -191.35
250.3699 -191.35
250.398 -191.35
250.4256 -191.35
250.4561 -191.35
250.4852 -191.35
250.5149 -191.35
250.5483 -191.35
250.5774 -191.35
250.6098 -191.35
250.6377 -191.35
250.6671 -191.35
250.7005 -191.35
250.7292 -191.35
250.7571 -191.35
250.7845 -191.35
250.8142 -191.35
250.8475 -191.35
250.8747 -191.35
250.9028 -191.35
250.9361 -191.35
250.9661 -191.35
250.9991 -191.35
251.0281 -191.35
251.0581 -191.35
251.0884 -191.35
251.1177 -191.35
251.151 -191.35
251.1793 -191.35
251.208 -191.35
251.2384 -191.35
251.2681 -191.35
251.3015 -191.35
251.3291 -191.35
251.3569 -191.35
251.3892 -191.35
251.4163 -191.35
251.4469 -191.35
251.4801 -191.35
251.5085 -191.35
251.537 -191.35
251.5661 -191.35
251.5936 -191.35
251.6219 -191.35
251.6553 -191.35
251.6847 -191.35
251.7161 -191.35
251.7466 -191.35
251.7751 -191.35
251.8085 -191.35
251.8381 -191.35
251.8675 -191.35
251.8963 -191.35
251.9296 -191.35
251.963 -191.35
251.9963 -191.35
252.0294 -191.35
252.0565 -191.35
252.0843 -191.35
252.1176 -191.35
252.1449 -191.35
252.1732 -191.35
252.2008 -191.35
252.228 -191.35
252.2563 -191.35
252.2895 -191.35
252.3165 -191.35
252.345 -191.35
252.3727 -191.35
252.4033 -191.35
252.4333 -191.35
252.4667 -191.35
252.5 -191.35
252.5311 -191.35
252.563 -191.35
252.5911 -191.35
252.6244 -191.35
252.6572 -191.35
252.6844 -191.35
252.7129 -191.35
252.7421 -191.35
252.7754 -191.35
252.804 -191.35
252.8319 -191.35
252.8596 -191.35
252.8877 -191.35
252.9158 -191.35
252.9489 -191.35
252.9762 -191.35
253.0036 -191.35
253.0356 -191.35
253.0656 -191.35
253.0937 -191.35
253.127 -191.35
253.1566 -191.35
253.1849 -191.35
253.2137 -191.35
253.2423 -191.35
253.2701 -191.35
253.3032 -191.35
253.3354 -191.35
253.3634 -191.35
253.3907 -191.35
253.4203 -191.35
253.4536 -191.35
253.4844 -191.35
253.515 -191.35
253.544 -191.35
253.5718 -191.35
253.6051 -191.35
253.6365 -191.35
253.6679 -191.35
253.6964 -191.35
253.7248 -191.35
253.758 -191.35
253.7858 -191.35
253.8136 -191.35
253.8407 -191.35
253.8684 -191.35
253.9014 -191.35
253.9348 -191.35
253.9621 -191.35
253.9894 -191.35
254.0162 -191.35
254.0455 -191.35
254.0751 -191.35
254.1084 -191.35
254.1374 -191.35
254.1659 -191.35
254.1971 -191.35
254.226 -191.35
254.2593 -191.35
254.2862 -191.35
254.3141 -191.35
254.3426 -191.35
254.3694 -191.35
254.3978 -191.35
254.431 -191.35
254.4578 -191.35
254.4866 -191.35
254.5161 -191.35
254.5459 -191.35
254.575 -191.35
254.6083 -191.35
254.636 -191.35
254.6646 -191.35
254.6929 -191.35
254.726 -191.35
254.7593 -191.35
254.788 -191.35
254.8152 -191.35
254.8438 -191.35
254.8723 -191.35
254.8999 -191.35
254.9333 -191.35
254.9655 -191.35
254.9935 -191.35
255.0269 -191.35
255.0602 -191.35
255.0935 -191.35
255.1237 -191.35
255.1526 -191.35
255.181 -191.35
255.2122 -191.35
255.2452 -191.35
255.2785 -191.35
255.3073 -191.35
255.3358 -191.35
255.3629 -191.35
255.3963 -191.35
255.4242 -191.35
255.451 -191.35
255.4802 -191.35
255.5081 -191.35
255.5359 -191.35
255.5692 -191.35
255.5974 -191.35
255.6257 -191.35
255.654 -191.35
255.6862 -191.35
255.7195 -191.35
255.7497 -191.35
255.7795 -191.35
255.8127 -191.35
255.8461 -191.35
255.8794 -191.35
255.9077 -191.35
255.9395 -191.35
255.9675 -191.35
255.996 -191.35
256.0293 -191.35
256.0571 -191.35
256.0851 -191.35
256.1163 -191.35
256.1458 -191.35
256.1791 -191.35
256.2119 -191.35
256.24 -191.35
256.2682 -191.35
256.2966 -191.35
256.33 -191.35
256.357 -191.35
256.3852 -191.35
256.4139 -191.35
256.4411 -191.35
256.4742 -191.35
256.5075 -191.35
256.5345 -191.35
256.5632 -191.35
256.5965 -191.35
256.6244 -191.35
256.6577 -191.35
256.6883 -191.35
256.7172 -191.35
256.7467 -191.35
256.7755 -191.35
256.8088 -191.35
256.8373 -191.35
256.8658 -191.35
256.8942 -191.35
256.9258 -191.35
256.9591 -191.35
256.9902 -191.35
257.0235 -191.35
257.0508 -191.35
257.0786 -191.35
257.1119 -191.35
257.1452 -191.35
257.1744 -191.35
257.2027 -191.35
257.2306 -191.35
257.2639 -191.35
257.2927 -191.35
257.3236 -191.35
257.351 -191.35
257.379 -191.35
257.4123 -191.35
257.4397 -191.35
257.4676 -191.35
257.4955 -191.35
257.5235 -191.35
257.5568 -191.35
257.5887 -191.35
257.6159 -191.35
257.6492 -191.35
257.6789 -191.35
257.7122 -191.35
257.7417 -191.35
257.7705 -191.35
257.8001 -191.35
257.83 -191.35
257.8633 -191.35
257.8905 -191.35
257.9189 -191.35
257.9523 -191.35
257.9797 -191.35
258.0129 -191.35
258.0405 -191.35
258.0681 -191.35
258.096 -191.35
258.1248 -191.35
258.1522 -191.35
258.1855 -191.35
258.214 -191.35
258.2439 -191.35
258.2755 -191.35
258.3082 -191.35
258.3415 -191.35
258.3703 -191.35
258.399 -191.35
258.4265 -191.35
258.4545 -191.35
258.4878 -191.35
258.5148 -191.35
258.5454 -191.35
258.5788 -191.35
258.606 -191.35
258.6393 -191.35
258.6719 -191.35
258.7 -191.35
258.7316 -191.35
258.762 -191.35
258.7952 -191.35
258.8264 -191.35
258.8545 -191.35
258.8821 -191.35
258.9112 -191.35
258.9424 -191.35
258.9748 -191.35
259.0037 -191.35
259.0367 -191.35
259.0666 -191.35
259.0982 -191.35
259.1313 -191.35
259.1582 -191.35
259.1892 -191.35
259.22 -191.35
259.2475 -191.35
259.2781 -191.35
259.3114 -191.35
259.3448 -191.35
259.3781 -191.35
259.4088 -191.35
259.4373 -191.35
259.4706 -191.35
259.5023 -191.35
259.5299 -191.35
259.5584 -191.35
259.5873 -191.35
259.6201 -191.35
259.6523 -191.35
259.6835 -191.35
259.7124 -191.35
259.7443 -191.35
259.7776 -191.35
259.8044 -191.35
259.8339 -191.35
259.8623 -191.35
259.8936 -191.35
259.9242 -191.35
259.9576 -191.35
259.9908 -191.35
260.0195 -191.35
260.0482 -191.35
260.0771 -191.35
260.1104 -191.35
260.1391 -191.35
260.1666 -191.35
260.1953 -191.35
260.2232 -191.35
260.2509 -191.35
260.2842 -191.35
260.3175 -191.35
260.3457 -191.35
260.3737 -191.35
260.4037 -191.35
260.4367 -191.35
260.4652 -191.35
260.4967 -191.35
260.5301 -191.35
260.5586 -191.35
260.592 -191.35
260.6196 -191.35
260.6488 -191.35
260.6768 -191.35
260.7054 -191.35
260.7387 -191.35
260.7676 -191.35
260.8009 -191.35
260.8326 -191.35
260.861 -191.35
260.8943 -191.35
260.9227 -191.35
260.9518 -191.35
260.9803 -191.35
261.0132 -191.35
261.0466 -191.35
261.0791 -191.35
261.1073 -191.35
261.1363 -191.35
261.1642 -191.35
261.1975 -191.35
261.226 -191.35
261.2586 -191.35
261.2919 -191.35
261.3253 -191.35
261.3586 -191.35
261.3866 -191.35
261.4153 -191.35
261.443 -191.35
261.4737 -191.35
261.507 -191.35
261.5404 -191.35
261.5703 -191.35
261.5999 -191.35
261.6333 -191.35
261.6666 -191.35
261.6945 -191.35
261.7219 -191.35
261.7511 -191.35
261.7806 -191.35
261.808 -191.35
261.8414 -191.35
261.8688 -191.35
261.8962 -191.35
261.9239 -191.35
261.9512 -191.35
261.9786 -191.35
262.0119 -191.35
262.0398 -191.35
262.0731 -191.35
262.1024 -191.35
262.1313 -191.35
262.1646 -191.35
262.1932 -191.35
262.2265 -191.35
262.2541 -191.35
262.2831 -191.35
262.3163 -191.35
262.3432 -191.35
262.3717 -191.35
262.401 -191.35
262.4293 -191.35
262.4619 -191.35
262.4952 -191.35
262.5223 -191.35
262.5523 -191.35
262.5824 -191.35
262.6109 -191.35
262.6399 -191.35
262.6732 -191.35
262.7008 -191.35
262.7304 -191.35
262.76 -191.35
262.7904 -191.35
262.8238 -191.35
262.8568 -191.35
262.8848 -191.35
262.9131 -191.35
262.9412 -191.35
262.9745 -191.35
263.0042 -191.35
263.0371 -191.35
263.0658 -191.35
263.0954 -191.35
263.1287 -191.35
263.157 -191.35
263.1877 -191.35
263.2166 -191.35
263.2464 -191.35
263.2798 -191.35
263.3079 -191.35
263.335 -191.35
263.367 -191.35
263.3951 -191.35
263.4278 -191.35
263.4583 -191.35
263.4873 -191.35
263.5164 -191.35
263.5497 -191.35
263.583 -191.35
263.6105 -191.35
263.6439 -191.35
263.6723 -191.35
263.7049 -191.35
263.7382 -191.35
263.7712 -191.35
263.7998 -191.35
263.8291 -191.35
263.8577 -191.35
263.891 -191.35
263.9227 -191.35
263.9535 -191.35
263.9809 -191.35
264.0093 -191.35
264.0427 -191.35
264.0722 -191.35
264.1016 -191.35
264.1341 -191.35
264.1674 -191.35
264.2008 -191.35
264.2288 -191.35
264.2599 -191.35
264.2895 -191.35
264.319 -191.35
264.3523 -191.35
264.383 -191.35
264.4142 -191.35
264.4454 -191.35
264.4734 -191.35
264.5067 -191.35
264.5352 -191.35
264.5633 -191.35
264.5919 -191.35
264.6193 -191.35
264.6478 -191.35
264.6812 -191.35
264.7145 -191.35
264.7438 -191.35
264.7733 -191.35
264.8022 -191.35
264.8356 -191.35
264.8667 -191.35
264.8947 -191.35
264.9252 -191.35
264.9551 -191.35
264.9884 -191.35
265.02 -191.35
265.0488 -191.35
265.0822 -191.35
265.112 -191.35
265.1453 -191.35
265.1725 -191.35
265.2013 -191.35
265.2302 -191.35
265.2602 -191.35
265.2935 -191.35
265.3263 -191.35
265.3547 -191.35
265.3835 -191.35
265.4134 -191.35
265.4467 -191.35
265.4753 -191.35
265.5052 -191.35
265.5356 -191.35
265.5655 -191.35
265.5988 -191.35
265.632 -191.35
265.6617 -191.35
265.693 -191.35
265.7226 -191.35
265.756 -191.35
265.7849 -191.35
265.8158 -191.35
265.845 -191.35
265.8738 -191.35
265.9071 -191.35
265.9349 -191.35
265.9672 -191.35
265.996 -191.35
266.0248 -191.35
266.0582 -191.35
266.086 -191.35
266.1145 -191.35
266.1443 -191.35
266.1714 -191.35
266.2031 -191.35
266.2365 -191.35
266.2643 -191.35
266.2929 -191.35
266.3221 -191.35
266.3502 -191.35
266.3792 -191.35
266.4125 -191.35
266.4459 -191.35
266.4741 -191.35
266.5042 -191.35
266.5366 -191.35
266.5699 -191.35
266.6018 -191.35
266.6334 -191.35
266.6627 -191.35
266.6928 -191.35
266.7262 -191.35
266.7595 -191.35
266.7888 -191.35
266.8187 -191.35
266.8494 -191.35
266.8828 -191.35
266.9154 -191.35
266.9457 -191.35
266.9772 -191.35
267.0085 -191.35
267.0418 -191.35
267.0751 -191.35
267.1038 -191.35
267.1317 -191.35
267.1624 -191.35
267.1952 -191.35
267.2285 -191.35
267.2569 -191.35
267.2838 -191.35
267.3148 -191.35
267.3481 -191.35
267.377 -191.35
267.4101 -191.35
267.4431 -191.35
267.4713 -191.35
267.5046 -191.35
267.5379 -191.35
267.5667 -191.35
267.5963 -191.35
267.6253 -191.35
267.6581 -191.35
267.6914 -191.35
