時間[s] タイヤの舵角[deg]
0 0
0.02 -3.45
0.05333333 -3.45
0.08666666 -3.45
0.12 -3.45
0.1485198 -3.45
0.1818531 -3.45
0.2135141 -3.45
0.2414354 -3.45
0.269428 -3.45
0.2979235 -3.45
0.3267056 -3.45
0.353615 -3.45
0.3869483 -3.45
0.4202817 -3.45
0.448091 -3.45
0.4789915 -3.45
0.5106859 -3.45
0.5406479 -3.45
0.5696887 -3.45
0.6024533 -3.45
0.6296895 -3.45
0.6579343 -3.45
0.6864413 -3.45
0.7132167 -3.45
0.7430139 -3.45
0.7763472 -3.45
0.8064912 -3.45
0.8398246 -3.45
0.8731579 -3.45
0.9054306 -3.45
0.9380797 -3.45
0.9678818 -3.45
0.9982665 -3.45
1.027712 -3.45
1.055367 -3.45
1.0887 -3.45
1.117686 -3.45
1.147957 -3.45
1.176972 -3.45
1.205236 -3.45
1.235292 -3.45
1.266599 -3.45
1.298783 -3.45
1.326511 -3.45
1.359844 -3.45
1.39011 -3.45
1.423443 -3.45
1.456776 -3.45
1.49011 -3.45
1.519376 -3.45
1.550017 -3.45
1.579236 -3.45
1.612382 -3.45
1.643068 -3.7
1.674163 -3.7
1.707496 -3.7
1.740829 -3.7
1.770426 -3.7
1.803759 -3.7
1.836555 -3.7
1.86616 -3.7
1.899493 -3.7
1.932796 -3.7
1.963024 -3.7
1.993993 -3.7
2.027326 -3.7
2.059307 -3.7
2.086796 -3.7
2.120129 -3.7
2.153462 -3.7
2.182456 -3.7
2.213518 -3.7
2.245199 -3.7
2.277315 -3.7
2.310649 -3.7
2.338934 -3.7
2.37132 -3.7
2.404653 -3.7
2.436845 -3.7
2.466393 -3.7
2.49674 -3.7
2.527368 -3.7
2.55657 -3.7
2.585021 -3.7
2.614633 -3.7
2.64429 -3.7
2.674867 -3.7
2.704875 -3.7
2.734939 -3.9
2.764656 -3.9
2.792606 -4.35
2.82211 -4.8
2.849443 -4.8
2.880735 -5.45
2.911436 -5.45
2.941677 -5.85
2.971686 -5.85
3.003533 -5.85
3.036866 -5.85
3.068679 -5.85
3.098447 -5.85
3.1303 -5.85
3.158989 -5.85
3.188831 -5.85
3.218801 -5.85
3.248803 -5.85
3.277955 -5.85
3.304849 -5.85
3.337455 -5.85
3.370788 -5.85
3.399843 -5.85
3.430092 -5.85
3.460267 -5.85
3.4936 -5.85
3.521817 -5.85
3.548448 -5.85
3.578286 -5.85
3.610875 -5.85
3.644208 -5.85
3.672856 -5.85
3.706189 -5.85
3.738878 -5.85
3.767969 -5.85
3.795695 -5.85
3.827293 -5.85
3.859946 -5.85
3.893279 -5.85
3.921469 -5.85
3.952089 -5.85
3.985391 -5.85
4.01352 -5.85
4.045728 -5.85
4.075406 -5.85
4.104354 -5.85
4.137125 -5.85
4.170459 -5.85
4.19972 -5.85
4.230807 -5.85
4.261727 -5.85
4.293778 -5.85
4.324811 -5.85
4.358145 -5.65
4.387811 -5.65
4.417233 -5.45
4.447373 -5.45
4.480707 -5.45
4.51404 -5.45
4.543063 -5.45
4.576396 -5.45
4.607271 -5.45
4.636275 -5.45
4.66615 -5.45
4.69689 -5.45
4.730223 -5.45
4.758141 -5.45
4.787426 -5.45
4.820759 -5.45
4.851555 -5.45
4.883201 -5.45
4.915013 -5.45
4.947317 -5.45
4.97708 -5.45
5.006753 -5.45
5.035351 -5.45
5.065945 -5.45
5.094446 -5.45
5.127779 -5.45
5.158473 -5.45
5.191807 -5.45
5.222754 -5.45
5.256087 -5.45
5.288778 -5.45
5.317212 -5.45
5.350381 -5.45
5.383715 -5.45
5.417048 -5.45
5.450381 -5.45
5.482214 -5.45
5.513139 -5.45
5.541474 -5.45
5.574808 -5.45
5.606067 -5.45
5.635767 -5.45
5.662943 -5.45
5.696276 -5.45
5.729609 -5.45
5.757551 -5.45
5.789461 -5.45
5.822269 -5.45
5.851822 -5.45
5.885155 -5.45
5.914731 -5.45
5.943414 -5.45
5.974705 -5.45
6.002746 -5.45
6.034708 -5.45
6.064716 -5.45
6.093357 -5.45
6.12499 -5.45
6.152659 -5.45
6.185992 -5.45
6.217051 -5.45
6.245385 -5.45
6.272804 -5.45
6.301033 -5.45
6.334366 -5.45
6.365308 -5.45
6.392603 -5.45
6.424621 -5.45
6.45532 -5.45
6.488654 -5.45
6.515265 -5.45
6.54727 -5.45
6.577636 -5.45
6.608147 -5.45
6.640857 -5.45
6.668537 -5.45
6.698915 -5.45
6.726186 -5.45
6.755903 -5.45
6.784129 -5.45
6.817462 -5.45
6.850466 -5.45
6.880114 -5.45
6.908367 -5.45
6.940286 -5.45
6.973619 -5.45
7.000367 -5.45
7.029476 -5.45
7.058424 -5.45
7.085321 -5.45
7.112978 -5.45
7.146312 -5.45
7.173945 -5.45
7.205579 -5.45
7.231565 -5.45
7.259558 -5.45
7.292892 -5.45
7.323926 -5.45
7.357259 -5.45
7.390593 -5.45
7.42005 -5.45
7.452962 -5.45
7.482546 -5.45
7.513695 -5.45
7.541193 -5.45
7.568391 -5.45
7.601724 -5.45
7.635057 -5.45
7.668391 -5.45
7.69971 -5.45
7.731134 -5.45
7.764468 -5.45
7.797801 -5.45
7.826158 -5.45
7.853697 -5.45
7.88703 -5.45
7.91586 -5.45
7.949193 -5.45
7.979963 -5.45
8.011414 -5.45
8.04103 -5.45
8.071061 -5.45
8.104394 -5.45
8.136691 -5.45
8.170024 -5.45
8.198513 -5.45
8.226442 -5.45
8.259775 -5.45
8.288956 -5.45
8.319345 -5.45
8.348232 -5.45
8.378709 -5.45
8.412042 -5.45
8.440219 -5.45
8.469793 -5.45
8.503127 -5.45
8.532616 -5.45
8.565949 -5.45
8.597219 -5.45
8.629344 -5.45
8.66155 -5.45
8.690556 -5.45
8.723888 -5.45
8.757222 -5.45
8.785564 -5.45
8.813285 -5.45
8.841002 -5.45
8.874332 -5.45
8.904328 -5.45
8.934982 -5.45
8.964407 -5.45
8.996116 -5.45
9.029449 -5.45
9.062782 -5.45
9.091475 -5.45
9.119894 -5.45
9.148711 -5.45
9.182045 -5.45
9.214679 -5.45
9.242513 -5.45
9.275846 -5.45
9.304746 -5.45
9.338079 -5.45
9.37126 -5.45
9.403096 -5.45
9.434397 -5.45
9.460802 -5.45
9.494136 -5.45
9.524423 -5.45
9.554894 -5.45
9.585135 -5.45
9.614777 -5.45
9.64811 -5.45
9.678888 -5.45
9.712222 -5.45
9.742408 -5.45
9.772416 -5.45
9.805749 -5.45
9.833312 -5.45
9.86319 -5.45
9.894555 -5.45
9.922062 -5.45
9.954957 -5.45
9.983748 -5.45
10.01708 -5.45
10.04562 -5.45
10.07474 -5.45
10.10808 -5.45
10.13898 -5.45
10.16743 -5.45
10.19442 -5.45
10.22322 -5.45
10.25655 -5.45
10.28532 -5.45
10.31414 -5.45
10.34569 -5.45
10.37488 -5.45
10.40821 -5.45
10.43554 -5.45
10.46693 -5.45
10.50027 -5.45
10.53343 -5.45
10.56676 -5.45
10.59929 -5.45
10.6276 -5.45
10.65687 -5.45
10.6857 -5.45
10.71903 -5.45
10.75189 -5.45
10.77974 -5.45
10.81071 -5.45
10.84262 -5.45
10.87596 -5.45
10.90385 -5.45
10.93234 -5.45
10.96098 -5.45
10.99415 -5.45
11.02748 -5.45
11.05888 -5.45
11.09221 -5.45
11.12403 -5.45
11.15277 -5.45
11.18577 -5.45
11.21475 -5.45
11.24645 -5.45
11.27979 -5.45
11.30674 -5.45
11.34007 -5.45
11.36974 -5.45
11.39899 -5.45
11.42721 -5.45
11.45849 -5.45
11.49182 -5.45
11.52016 -5.45
11.5535 -5.45
11.5853 -5.45
11.61544 -5.45
11.64877 -5.45
11.67678 -5.45
11.70541 -5.45
11.73866 -5.45
11.76757 -5.45
11.80091 -5.45
11.83424 -5.45
11.86268 -5.45
11.89046 -5.45
11.92379 -5.45
11.95712 -5.45
11.98935 -5.45
12.02041 -5.45
12.04803 -5.45
12.0769 -5.45
12.11023 -5.45
12.14356 -5.45
12.1749 -5.45
12.20824 -5.45
12.23655 -5.45
12.26988 -5.45
12.29695 -5.45
12.32666 -5.45
12.35845 -5.45
12.38826 -5.45
12.42159 -5.45
12.45156 -5.45
12.48489 -5.45
12.51822 -5.45
12.54798 -5.45
12.58132 -5.45
12.61465 -5.45
12.64379 -5.45
12.67113 -5.45
12.70447 -5.45
12.7378 -5.45
12.76596 -5.45
12.79734 -5.45
12.82664 -5.45
12.85997 -5.45
12.89331 -5.45
12.9205 -5.45
12.94906 -5.45
12.98163 -5.45
13.01496 -5.45
13.04655 -5.45
13.07806 -5.45
13.11073 -5.45
13.13783 -5.45
13.16516 -5.45
13.19849 -5.45
13.22775 -5.45
13.25834 -5.45
13.29082 -5.45
13.31943 -5.45
13.35276 -5.45
13.38336 -5.45
13.41019 -5.45
13.43975 -5.45
13.46899 -5.45
13.50232 -5.45
13.53385 -5.45
13.56422 -5.45
13.59319 -5.45
13.6248 -5.45
13.65813 -5.45
13.68653 -5.45
13.71987 -5.45
13.75128 -5.45
13.78461 -5.45
13.81794 -5.45
13.8479 -5.45
13.87934 -5.45
13.91267 -5.45
13.94601 -5.45
13.97934 -5.45
14.0074 -5.45
14.03407 -5.45
14.06256 -5.45
14.09294 -5.45
14.12627 -5.45
14.15504 -5.45
14.18453 -5.45
14.21786 -5.45
14.24612 -5.45
14.27945 -5.45
14.30825 -5.45
14.34158 -5.45
14.3722 -5.45
14.39886 -5.45
14.43219 -5.45
14.46224 -5.45
14.49068 -5.45
14.52401 -5.45
14.55734 -5.45
14.59068 -5.45
14.61768 -5.45
14.64747 -5.45
14.6808 -5.45
14.71242 -5.45
14.74575 -5.45
14.77642 -5.45
14.80976 -5.45
14.83821 -5.45
14.868 -5.45
14.90118 -5.45
14.93451 -5.45
14.96352 -5.45
14.99152 -5.45
15.02415 -5.45
15.05748 -5.45
15.09081 -5.45
15.12058 -5.45
15.15164 -5.45
15.18104 -5.45
15.21437 -5.45
15.24343 -5.45
15.27676 -5.45
15.30752 -5.45
15.34085 -5.45
15.37418 -5.45
15.40043 -5.45
15.42886 -5.45
15.45744 -5.45
15.48749 -5.45
15.52083 -5.45
15.55416 -5.45
15.58321 -5.45
15.61246 -5.45
15.64516 -5.45
15.67828 -5.45
15.70761 -5.45
15.73558 -5.45
15.76259 -5.45
15.79317 -5.45
15.82366 -5.45
15.85699 -5.45
15.89032 -5.45
15.92021 -5.45
15.95354 -5.45
15.98528 -5.45
16.01801 -5.45
16.04844 -5.45
16.07836 -5.45
16.10961 -5.45
16.13826 -5.45
16.17159 -5.45
16.20378 -5.45
16.23696 -5.45
16.26363 -5.45
16.29427 -5.45
16.3276 -5.45
16.35632 -5.45
16.38677 -5.45
16.41654 -5.45
16.44987 -5.45
16.48321 -5.45
16.5107 -5.45
16.54176 -5.45
16.57189 -5.45
16.60095 -5.45
16.63428 -5.45
16.66283 -5.45
16.69412 -5.45
16.72659 -5.45
16.75562 -5.45
16.78896 -5.45
16.81724 -5.45
16.85058 -5.45
16.8809 -5.45
16.91332 -5.45
16.94666 -5.45
16.97835 -5.45
17.01168 -5.45
17.04378 -5.45
17.07711 -5.45
17.10971 -5.45
17.13971 -5.45
17.16958 -5.45
17.20164 -5.45
17.23497 -5.45
17.26831 -5.45
17.30013 -5.45
17.3312 -5.45
17.3593 -5.45
17.39263 -5.45
17.42534 -5.45
17.45433 -5.45
17.48424 -5.45
17.51427 -5.45
17.5476 -5.45
17.58094 -5.45
17.61043 -5.45
17.64285 -5.45
17.67578 -5.45
17.70912 -5.45
17.7372 -5.45
17.76524 -5.45
17.79738 -5.45
17.83071 -5.45
17.86404 -5.45
17.89566 -5.45
17.92608 -5.45
17.95445 -5.45
17.98391 -5.45
18.01724 -5.45
18.04911 -5.45
18.07809 -5.45
18.10584 -5.45
18.13399 -5.45
18.16732 -5.45
18.20066 -5.45
18.23399 -5.45
18.26258 -5.45
18.29231 -5.45
18.32565 -5.45
18.35359 -5.45
18.38692 -5.45
18.4196 -5.45
18.45293 -5.45
18.48626 -5.45
18.51518 -5.45
18.54688 -5.45
18.57978 -5.45
18.611 -5.45
18.64433 -5.45
18.67612 -5.45
18.70946 -5.45
18.73826 -5.45
18.76836 -5.45
18.8017 -5.45
18.83503 -5.45
18.86419 -5.45
18.89752 -5.45
18.92682 -5.45
18.96015 -5.45
18.99348 -5.45
19.02335 -5.45
19.05334 -5.45
19.08418 -5.45
19.11751 -5.45
19.14822 -5.45
19.18155 -5.45
19.21131 -5.45
19.24056 -5.45
19.2739 -5.45
19.30459 -5.45
19.33792 -5.45
19.36988 -5.45
19.40322 -5.45
19.43655 -5.45
19.46988 -5.45
19.49883 -5.45
19.52957 -5.45
19.55912 -5.45
19.59245 -5.45
19.62461 -5.45
19.65556 -5.45
19.68662 -5.45
19.71647 -5.45
19.74981 -5.45
19.77921 -5.45
19.80853 -5.45
19.84186 -5.45
19.8752 -5.45
19.90853 -5.45
19.93693 -5.45
19.9668 -5.45
19.9989 -5.45
20.02805 -5.45
20.06138 -5.45
20.09299 -5.45
20.12586 -5.45
20.15334 -5.45
20.18187 -5.45
20.2152 -5.45
20.24427 -5.45
20.27761 -5.45
20.30772 -5.45
20.33803 -5.45
20.37137 -5.45
20.39992 -5.45
20.43033 -5.45
20.46221 -5.45
20.49372 -5.45
20.52705 -5.45
20.55898 -5.45
20.59232 -5.45
20.62182 -5.45
20.65298 -5.45
20.68631 -5.45
20.71964 -5.45
20.74938 -5.45
20.77838 -5.45
20.80983 -5.45
20.84317 -5.45
20.8765 -5.45
20.90983 -5.45
20.94317 -5.45
20.9765 -5.45
21.00983 -5.45
21.03839 -5.45
21.07172 -5.45
21.10506 -5.45
21.13414 -5.45
21.1661 -5.45
21.19571 -5.45
21.22655 -5.45
21.25988 -5.45
21.28779 -5.45
21.31796 -5.45
21.3513 -5.45
21.38105 -5.45
21.41439 -5.45
21.44491 -5.45
21.47472 -5.45
21.50414 -5.45
21.53238 -5.45
21.56571 -5.45
21.5982 -5.45
21.6296 -5.45
21.65972 -5.45
21.6899 -5.45
21.72324 -5.45
21.75444 -5.45
21.78223 -5.45
21.81081 -5.45
21.84414 -5.45
21.87748 -5.45
21.91031 -5.45
21.94364 -5.45
21.97426 -5.45
22.00466 -5.45
22.0375 -5.45
22.07082 -5.45
22.1038 -5.45
22.1332 -5.45
22.16058 -5.45
22.19391 -5.45
22.22355 -5.45
22.25262 -5.45
22.28595 -5.45
22.31705 -5.45
22.35038 -5.45
22.38338 -5.45
22.41175 -5.45
22.44107 -5.45
22.47043 -5.45
22.50376 -5.45
22.53331 -5.45
22.5624 -5.45
22.59573 -5.45
22.62906 -5.45
22.66179 -5.45
22.69497 -5.45
22.72723 -5.45
22.75734 -5.45
22.78584 -5.45
22.81918 -5.45
22.85099 -5.45
22.88433 -5.45
22.91468 -5.45
22.9443 -5.45
22.97763 -5.45
23.0109 -5.45
23.04308 -5.45
23.07188 -5.45
23.10517 -5.45
23.1385 -5.45
23.17183 -5.45
23.20126 -5.45
23.23079 -5.45
23.26279 -5.45
23.29613 -5.45
23.32946 -5.45
23.36107 -5.45
23.39441 -5.45
23.42227 -5.45
23.4556 -5.45
23.48894 -5.45
23.52227 -5.45
23.54922 -5.45
23.58005 -5.45
23.61338 -5.45
23.64123 -5.45
23.66863 -5.45
23.69791 -5.45
23.72735 -5.45
23.76068 -5.45
23.79297 -5.45
23.82631 -5.45
23.8552 -5.45
23.88455 -5.45
23.91788 -5.45
23.94902 -5.45
23.98113 -5.45
24.01044 -5.45
24.04193 -5.45
24.07526 -5.45
24.10859 -5.45
24.13771 -5.45
24.1647 -5.45
24.19803 -5.45
24.23137 -5.45
24.25962 -5.45
24.2881 -5.45
24.31827 -5.45
24.34784 -5.45
24.38117 -5.45
24.41451 -5.45
24.44478 -5.45
24.47545 -5.45
24.50471 -5.45
24.53804 -5.45
24.56778 -5.45
24.59634 -5.45
24.6289 -5.45
24.65667 -5.45
24.69001 -5.45
24.71875 -5.45
24.74839 -5.45
24.7762 -5.45
24.8052 -5.45
24.83853 -5.45
24.8718 -5.45
24.9027 -5.45
24.93391 -5.45
24.96508 -5.45
24.99841 -5.45
25.02743 -5.45
25.05867 -5.45
25.08949 -5.45
25.11831 -5.45
25.15164 -5.45
25.18275 -5.45
25.21392 -5.45
25.24338 -5.45
25.27671 -5.45
25.31005 -5.45
25.33934 -5.45
25.36837 -5.45
25.4017 -5.45
25.43154 -5.45
25.46487 -5.45
25.49503 -5.45
25.52344 -5.45
25.55255 -5.45
25.58284 -5.45
25.61617 -5.45
25.64447 -5.45
25.67781 -5.45
25.71062 -5.45
25.74074 -5.45
25.77407 -5.45
25.80324 -5.45
25.83303 -5.45
25.86112 -5.45
25.88887 -5.45
25.9222 -5.45
25.95162 -5.45
25.98495 -5.45
26.01448 -5.45
26.04575 -5.45
26.07908 -5.45
26.10696 -5.45
26.13686 -5.45
26.16678 -5.45
26.20011 -5.45
26.23345 -5.45
26.26546 -5.45
26.29563 -5.45
26.32698 -5.45
26.36032 -5.45
26.39365 -5.45
26.42656 -5.45
26.45593 -5.45
26.48442 -5.45
26.51437 -5.45
26.54771 -5.45
26.58104 -5.45
26.61328 -5.45
26.64147 -5.45
26.67091 -5.45
26.70424 -5.45
26.73561 -5.45
26.7636 -5.45
26.79524 -5.45
26.8261 -5.45
26.85944 -5.45
26.88838 -5.45
26.92171 -5.45
26.95146 -5.45
26.9828 -5.45
27.01613 -5.45
27.04947 -5.45
27.07808 -5.45
27.10563 -5.45
27.13383 -5.45
27.16716 -5.45
27.2005 -5.45
27.22917 -5.45
27.25686 -5.45
27.29019 -5.45
27.32353 -5.45
27.35237 -5.45
27.3796 -5.45
27.41067 -5.45
27.44236 -5.45
27.47569 -5.45
27.50518 -5.45
27.53823 -5.45
27.57156 -5.45
27.60489 -5.45
27.63823 -5.45
27.66928 -5.45
27.70262 -5.45
27.73177 -5.45
27.7598 -5.45
27.79313 -5.45
27.82646 -5.45
27.85568 -5.45
27.88343 -5.45
27.91676 -5.45
27.9501 -5.45
27.98343 -5.45
28.01676 -5.45
28.04629 -5.45
28.07549 -5.45
28.10882 -5.45
28.13611 -5.45
28.16508 -5.45
28.19482 -5.45
28.22396 -5.45
28.2573 -5.45
28.28621 -5.45
28.31449 -5.45
28.34236 -5.45
28.3757 -5.45
28.40903 -5.45
28.43729 -5.45
28.46877 -5.45
28.49907 -5.45
28.53217 -5.45
28.5655 -5.45
28.59618 -5.45
28.62382 -5.45
28.65256 -5.45
28.68307 -5.45
28.71641 -5.45
28.74596 -5.45
28.77506 -5.45
28.80839 -5.45
28.83655 -5.45
28.86989 -5.45
28.89917 -5.45
28.93005 -5.45
28.96338 -5.45
28.9923 -5.45
29.02563 -5.45
29.05557 -5.45
29.08499 -5.45
29.11687 -5.45
29.14606 -5.45
29.17939 -5.45
29.20837 -5.45
29.2417 -5.45
29.2716 -5.45
29.30443 -5.45
29.33776 -5.45
29.36986 -5.45
29.40319 -5.45
29.43163 -5.45
29.46235 -5.45
29.49569 -5.45
29.52902 -5.45
29.5591 -5.45
29.59244 -5.45
29.62114 -5.45
29.65447 -5.45
29.68781 -5.45
29.71643 -5.45
29.74652 -5.45
29.77637 -5.45
29.8097 -5.45
29.8387 -5.45
29.86778 -5.45
29.89909 -5.45
29.92837 -5.45
29.9617 -5.45
29.99485 -5.45
30.02608 -5.45
30.0582 -5.45
30.09154 -5.45
30.12487 -5.45
30.15821 -5.45
30.18743 -5.45
30.21688 -5.45
30.24614 -5.45
30.27947 -5.45
30.30899 -5.2
30.33791 -5.2
30.36482 -4.8
30.39815 -3.7
30.43148 -3.7
30.46367 -2.6
30.49153 -1.95
30.52013 -1.95
30.55129 -0.85
30.58462 -1.05
30.61385 -1.05
30.64718 -1.3
30.67736 -1.3
30.70841 -2.15
30.74152 -3.25
30.77234 -3.25
30.8022 -5.2
30.83495 -6.3
30.86241 -6.3
30.89574 -6.75
30.92778 -6.75
30.96023 -6.75
30.9879 -6.55
31.01866 -6.55
31.05199 -6.3
31.08294 -6.1
31.11627 -6.1
31.14604 -6.1
31.17547 -6.1
31.2088 -6.1
31.23648 -6.1
31.26563 -6.1
31.29548 -6.1
31.32331 -6.1
31.35546 -6.1
31.3888 -6.1
31.41869 -6.1
31.44913 -6.1
31.47608 -6.1
31.50514 -6.1
31.53847 -5.85
31.57181 -5.65
31.59934 -5.65
31.62986 -5.65
31.6632 -5.65
31.69653 -5.65
31.72437 -5.65
31.75399 -5.65
31.78351 -5.65
31.81684 -5.45
31.85018 -5.45
31.88351 -5.2
31.91364 -5.2
31.94322 -5.2
31.9711 -5.2
32.00443 -5.2
32.03306 -5.2
32.062 -5.2
32.09058 -5.2
32.12374 -5.2
32.15708 -5.2
32.1849 -5.2
32.21262 -5.2
32.24595 -5.2
32.27928 -5.2
32.31262 -5.2
32.34029 -5.2
32.37329 -5.2
32.40662 -5.2
32.43576 -5.2
32.4691 -5.2
32.49804 -5.2
32.5269 -5.2
32.5557 -5.2
32.5853 -5.2
32.61863 -5.2
32.65197 -5.2
32.68381 -5.2
32.71391 -5.2
32.74339 -5.2
32.77672 -5.2
32.8047 -5.2
32.83263 -5.2
32.86364 -5.2
32.89354 -5.2
32.92687 -5.2
32.95597 -5.2
32.98782 -5.2
33.02073 -5.2
33.0497 -5.2
33.08303 -5.2
33.11153 -5.2
33.14108 -5.2
33.16945 -5.2
33.1997 -5.2
33.23303 -5.2
33.26262 -5.2
33.29101 -5.2
33.32042 -5.2
33.35042 -5.2
33.38375 -5.2
33.41613 -5.2
33.44387 -5.2
33.47417 -5.2
33.50633 -5.2
33.53966 -5.2
33.57148 -5.2
33.60056 -5.2
33.6339 -5.2
33.6628 -5.2
33.69561 -5.2
33.72589 -5.2
33.75922 -5.2
33.78801 -5.2
33.82135 -5.2
33.85468 -5.2
33.88667 -5.2
33.91759 -5.45
33.94558 -5.45
33.97649 -5.85
34.00982 -6.55
34.0409 -6.55
34.06797 -7.4
34.09702 -8.05
34.12641 -8.05
34.15974 -8.5
34.19075 -9.35
34.2218 -9.35
34.25106 -9.8
34.28187 -9.8
34.3152 -10
34.34397 -10
34.3773 -10
34.40554 -10
34.43363 -10
34.46696 -10
34.49792 -10
34.5288 -10
34.55938 -10
34.59272 -10
34.62605 -10
34.65925 -10
34.69111 -10
34.72131 -10
34.74999 -10
34.78333 -10
34.81666 -10
34.84697 -10
34.87645 -10
34.90978 -10
34.94311 -10
34.97644 -10
35.00924 -10
35.04095 -10
35.06833 -10
35.10167 -10
35.1304 -10
35.16359 -10
35.1911 -10
35.22202 -10
35.25535 -10
35.28868 -10
35.32154 -10
35.35145 -10
35.38478 -10
35.41811 -10
35.44595 -10
35.4784 -10
35.51014 -10
35.54348 -10
35.57563 -10
35.60464 -10
35.63797 -10
35.67131 -10
35.6992 -10
35.73253 -10
35.76239 -10
35.79399 -10
35.82496 -10
35.85529 -10
35.88862 -10
35.91831 -10
35.94613 -9.8
35.97946 -9.8
36.00921 -9.15
36.04255 -8.5
36.07031 -8.5
36.10365 -7.85
36.13698 -7.6
36.16647 -7.6
36.1998 -7.4
36.22937 -7.4
36.25909 -7.4
36.28921 -7.4
36.31903 -7.4
36.35236 -7.4
36.3857 -7.4
36.4155 -7.4
36.44376 -7.4
36.47423 -7.4
36.50756 -7.4
36.53844 -7.4
36.56624 -7.4
36.59629 -7.2
36.62605 -6.75
36.65939 -6.1
36.69064 -6.1
36.71967 -5.65
36.753 -5.65
36.78426 -5.45
36.8176 -5.45
36.85054 -5.45
36.88388 -5.45
36.91721 -5.45
36.9462 -5.45
36.97953 -5.45
37.01094 -5.45
37.03906 -5.45
37.06675 -5.45
37.09674 -5.45
37.13007 -5.45
37.1591 -5.45
37.18612 -5.45
37.2161 -5.2
37.24899 -4.8
37.28233 -4.8
37.31419 -4.15
37.34433 -3.05
37.37363 -3.05
37.40696 -1.95
37.4403 -1.05
37.47363 -1.05
37.50434 -0.4
37.53297 -0.4
37.56474 0.2
37.59808 0.65
37.62772 0.65
37.65725 0.65
37.68573 0.85
37.71907 0.85
37.7524 1.5
37.78112 2.8
37.81425 2.8
37.84488 3.9
37.87531 5.2
37.90864 5.2
37.93667 6.95
37.96528 6.95
37.99861 8.5
38.02995 9.15
38.06329 9.15
38.09269 9.15
38.12239 7.2
38.15045 7.2
38.18378 5.45
38.21711 3.05
38.24673 3.05
38.27628 1.05
38.30379 1.05
38.33361 -0.4
38.36694 -1.05
38.39988 -1.05
38.42827 -1.3
38.45874 -1.3
38.48985 -1.3
38.52319 -1.3
38.5507 -1.3
38.58403 -1.3
38.61283 -1.3
38.64108 -1.3
38.67441 -1.3
38.70357 -1.3
38.73338 -1.3
38.76322 -1.3
38.79394 -1.3
38.82727 -1.3
38.85775 -1.3
38.88624 -1.3
38.91832 -1.3
38.95166 -1.3
38.98499 -1.3
39.01288 -1.3
39.04056 -1.3
39.07138 -1.3
39.10414 -1.3
39.13747 -1.3
39.1669 -1.3
39.20023 -1.3
39.233 -1.3
39.26138 -1.3
39.29472 -1.3
39.32472 -1.3
39.35587 -1.3
39.38463 -1.3
39.41796 -1.3
39.45129 -1.7
39.48463 -2.4
39.51312 -2.4
39.54328 -3.05
39.57254 -3.05
39.60587 -3.45
39.63366 -3.7
39.66201 -3.7
39.69522 -3.7
39.72855 -3.7
39.76188 -3.7
39.79148 -3.7
39.82352 -3.7
39.85615 -3.7
39.88684 -3.7
39.92017 -3.7
39.95119 -3.7
39.98452 -3.7
40.01786 -3.7
40.04604 -3.7
40.07938 -3.7
40.10894 -3.7
40.13838 -3.7
40.16715 -3.45
40.19783 -3.45
40.23116 -3.05
40.25994 -2.4
40.29081 -2.4
40.31998 -0.85
40.34991 -0.85
40.38324 0.85
40.41161 2.15
40.44088 2.15
40.46965 2.6
40.49974 2.6
40.53307 2.6
40.56188 1.95
40.59216 1.95
40.62408 1.05
40.65446 0
40.68779 0
40.71871 -0.4
40.75204 -0.4
40.77953 -0.4
40.80918 -0.2
40.84251 0.85
40.87003 0.85
40.89873 1.95
40.92882 1.95
40.95945 3.45
40.99279 4.35
41.02081 4.35
41.05125 8.5
41.08051 10.9
41.11385 10.9
41.14718 13.1
41.17963 14.15
41.20904 14.15
41.23928 14.4
41.26713 14.4
41.30046 14.4
41.33293 14.4
41.36027 14.4
41.38797 14.4
41.4194 14.4
41.45274 14.4
41.48317 14.4
41.51628 14.15
41.54544 14.15
41.5785 13.95
41.61183 13.95
41.63853 13.95
41.66891 13.95
41.69856 13.95
41.72761 13.95
41.76094 13.95
41.79072 13.95
41.82406 13.95
41.85739 13.95
41.88591 13.95
41.91925 13.95
41.95188 13.95
41.98018 13.95
42.01031 13.95
42.03965 13.95
42.07299 13.95
42.10564 13.95
42.13249 13.95
42.16508 13.95
42.19842 13.95
42.23175 13.95
42.25859 13.95
42.28912 13.95
42.31845 13.95
42.3475 13.95
42.38083 14.15
42.41248 14.15
42.44581 14.85
42.47915 15.7
42.50885 15.7
42.54219 16.6
42.57339 17.65
42.60343 17.65
42.63101 18.75
42.66032 18.75
42.69366 20.05
42.72277 21.6
42.75099 21.6
42.78432 23.55
42.81609 23.55
42.84942 25.95
42.87747 27.7
42.90879 27.7
42.93956 29.25
42.96868 29.9
43.00201 29.9
43.0337 29.9
43.06288 29.9
43.09621 29.9
43.12576 30.8
43.1591 32.75
43.18895 32.75
43.21668 34.7
43.24517 34.7
43.2785 38
43.31184 40.4
43.34071 40.4
43.37177 43.25
43.40511 45.65
43.43817 45.65
43.4715 48.05
43.50346 50.45
43.53679 50.45
43.57012 53.5
43.5982 56.55
43.63153 56.55
43.66213 59.15
43.69199 62.25
43.72109 62.25
43.74914 65.05
43.78247 65.05
43.81133 67.05
43.84467 69.45
43.8749 69.45
43.90824 71.65
43.94157 73.15
43.97311 73.15
44.00189 75.1
44.03522 77.95
44.06512 77.95
44.09845 80.15
44.12969 83.4
44.16302 83.4
44.19212 86.25
44.22004 89.3
44.25337 89.3
44.28671 92.4
44.31517 95
44.34354 95
44.37196 98.95
44.40529 102
44.43538 102
44.46651 105.7
44.49974 105.7
44.53055 108.3
44.56388 109.85
44.5927 109.85
44.62023 112.05
44.64964 112.05
44.68297 115.1
44.7163 117.95
44.7445 117.95
44.77569 121.65
44.80813 125.15
44.83826 125.15
44.87159 128.65
44.90169 131.25
44.93503 131.25
44.96275 134.3
44.99534 134.3
45.02868 137.4
45.06201 140.45
45.09408 140.45
45.12717 142.4
45.1605 143.7
45.19384 145.7
45.22372 145.7
45.25157 147.45
45.28206 147.45
45.31504 148.75
45.34837 150.7
45.3762 150.7
45.40813 151.8
45.4367 153.3
45.46545 153.3
45.49879 154.65
45.52744 154.65
45.55848 155.5
45.58722 156.8
45.61892 156.8
45.65226 157.7
45.68154 159
45.71278 159
45.74371 160.3
45.77566 161.65
45.80899 161.65
45.83709 162.5
45.87042 163.15
45.89955 163.15
45.93168 164.05
45.96502 164.7
45.99685 164.7
46.02797 165.1
46.05773 165.35
46.08729 165.35
46.12062 165.35
46.14983 165.35
46.17992 165.35
46.2082 165.35
46.23666 165.35
46.27 165.35
46.30333 165.35
46.3311 165.35
46.35916 165.35
46.38838 165.35
46.41793 165.35
46.45126 165.35
46.4846 165.35
46.51439 165.35
46.54473 165.35
46.57329 165.1
46.60662 164.25
46.63948 164.25
46.66801 163.15
46.70135 160.95
46.73468 160.95
46.76801 157.9
46.79842 155.05
46.82599 155.05
46.853 150.7
46.88531 150.7
46.91864 147.2
46.95053 142.6
46.9784 142.6
47.00771 139.15
47.03678 135
47.07011 135
47.09758 131.25
47.12902 126.45
47.1617 126.45
47.19125 122.1
47.22458 117.7
47.25526 117.7
47.28472 114.65
47.31225 114.65
47.341 111.8
47.37434 106.8
47.40426 106.8
47.43372 104.15
47.4664 99.8
47.49723 99.8
47.53056 93.7
47.55906 88
47.58727 88
47.617 80.8
47.64577 80.8
47.6791 75.35
47.70991 69.45
47.74 69.45
47.77028 66.4
47.79985 66.4
47.83319 65.5
47.86612 66.15
47.89485 66.15
47.92387 65.05
47.95499 60.9
47.98833 56.35
48.01683 56.35
48.0444 51.3
48.07184 51.3
48.10257 46.3
48.1359 42.15
48.1683 42.15
48.19627 36.45
48.22509 36.45
48.25622 31.85
48.28955 25.55
48.31968 25.55
48.35301 19.2
48.38268 12
48.41314 12
48.44647 5.45
48.47831 -2.4
48.50748 -2.4
48.53527 -9.15
48.56417 -9.15
48.5975 -12.2
48.62835 -12.65
48.65734 -12.65
48.68423 -12.65
48.71299 -12.65
48.74632 -12.65
48.77966 -12.85
48.8077 -12.85
48.84103 -15.05
48.87437 -17.9
48.9077 -17.9
48.93595 -19.2
48.96604 -19.2
48.99937 -19.4
49.02832 -19.65
49.0612 -19.65
49.09453 -20.75
49.12426 -22.7
49.15362 -22.7
49.18362 -23.8
49.21696 -25.95
49.24559 -25.95
49.27685 -27.3
49.30899 -27.3
49.33834 -28.6
49.37168 -28.8
49.40047 -28.8
49.42898 -29.25
49.46231 -30.8
49.49269 -30.8
49.52602 -32.95
49.55286 -32.95
49.5835 -34.25
49.61207 -35.15
49.64253 -35.15
49.67587 -35.6
49.7092 -35.35
49.74253 -33.85
49.77359 -33.85
49.80411 -30.8
49.83744 -27.7
49.86727 -27.7
49.89544 -24.45
49.92405 -24.45
49.95738 -22.5
49.99072 -18.75
50.02023 -18.75
50.05202 -16.15
50.08173 -13.95
50.11267 -13.95
50.146 -11.55
50.17405 -11.55
50.20582 -9.6
50.23868 -7.6
50.26632 -7.6
50.29902 -6.3
50.33088 -4.55
50.36421 -4.55
50.39754 -3.05
50.426 -0.65
50.45933 -0.65
50.49266 2.4
50.52154 5.45
50.54839 5.45
50.5798 8.3
50.61314 8.3
50.64123 10.25
50.67212 11.1
50.70048 11.1
50.73284 12
50.76617 12.2
50.79431 12.2
50.82378 12.2
50.85427 12.2
50.88412 12.45
50.91745 13.3
50.94697 13.3
50.97552 14.4
51.00356 14.4
51.03394 15.9
51.06727 17.65
51.09834 17.65
51.12811 19
51.16145 20.5
51.19265 20.5
51.22598 21.6
51.25433 22.25
51.2848 22.25
51.31367 22.9
51.34536 22.9
51.3787 23.8
51.40953 24.65
51.44286 24.65
51.47368 25.3
51.50356 25.75
51.5369 25.75
51.57023 25.95
51.60321 25.95
51.6352 25.95
51.66553 25.75
51.69886 25.55
51.72934 25.55
51.75758 24.9
51.78553 24
51.8149 24
51.84823 23.35
51.87835 22.9
51.90735 22.9
51.93795 22.9
51.96704 22.9
52.00037 22.9
52.02981 22.9
52.061 22.9
52.08954 22.9
52.12288 22.9
52.15621 22.9
52.18689 22.9
52.22022 22.9
52.25356 22.9
52.28043 22.9
52.31376 22.9
52.3471 22.9
52.37949 22.9
52.40718 22.9
52.43714 22.9
52.47047 22.9
52.49852 22.9
52.52565 22.9
52.55414 22.7
52.58325 22.7
52.61658 22.05
52.64991 21.4
52.67817 21.4
52.70716 20.75
52.73663 20.75
52.76658 19.85
52.79992 19.2
52.8285 19.2
52.86177 18.3
52.89153 17.25
52.92196 17.25
52.9553 16.6
52.98772 16.6
53.01616 16.6
53.04686 16.6
53.07758 16.6
53.11091 16.6
53.13857 16.6
53.16866 16.6
53.20199 16.15
53.23103 15.7
53.26437 15.7
53.29434 14.6
53.32352 14.6
53.35685 13.5
53.38393 12.65
53.41727 12.65
53.4506 12.45
53.48154 12.45
53.51151 12.45
53.54047 12.85
53.5738 13.75
53.60322 13.75
53.63054 15.05
53.66126 15.05
53.6942 15.9
53.72754 16.6
53.75875 16.6
53.79122 16.6
53.82206 15.7
53.85539 13.95
53.88873 13.95
53.91953 12
53.94991 9.15
53.9787 9.15
54.01167 6.75
54.045 3.7
54.0759 3.7
54.10773 0.85
54.13528 0.85
54.16433 -0.65
54.19767 -1.05
54.231 -1.05
54.26035 -1.05
54.29178 -1.05
54.32062 -1.05
54.35395 -1.05
54.38261 -0.65
54.41293 -0.65
54.44244 -0.2
54.47417 -0.2
54.5075 0.85
54.53889 1.7
54.56875 1.7
54.59689 2.15
54.62503 2.15
54.65837 2.4
54.68813 2.15
54.72071 2.15
54.74747 1.95
54.77843 1.3
54.81176 1.3
54.84509 0.65
54.87414 -0.4
54.90309 -0.4
54.9327 -0.65
54.96604 -0.65
54.99304 -0.65
55.02388 -0.65
55.05443 -0.65
55.08725 -0.65
55.12058 -1.05
55.15118 -1.05
55.18141 -1.7
55.2137 -2.6
55.24214 -2.6
55.27547 -3.25
55.30881 -3.7
55.34214 -3.7
55.37096 -3.7
55.40348 -3.7
55.43682 -3.7
55.46638 -3.45
55.4976 -3.45
55.53093 -3.25
55.56021 -2.6
55.59354 -1.5
55.62057 -1.5
55.65391 -0.2
55.68255 -0.2
55.71174 1.3
55.74508 3.25
55.77841 3.25
55.81111 4.55
55.84055 6.55
55.86758 6.55
55.90091 7.6
55.93054 7.85
55.96387 7.85
55.99178 8.05
56.02403 8.05
56.05736 8.05
56.0859 8.05
56.115 8.05
56.14779 8.05
56.17821 8.05
56.21154 8.05
56.24126 8.3
56.27184 9.6
56.3022 9.6
56.33155 10.7
56.36489 10.7
56.39347 12.65
56.423 13.95
56.45524 13.95
56.48291 15.25
56.51624 16.35
56.54958 16.35
56.57707 17
56.60535 17
56.63868 17.65
56.67202 18.55
56.70079 19.2
56.72866 19.2
56.762 19.85
56.794 19.85
56.82734 20.5
56.855 20.95
56.88385 20.95
56.91457 21.15
56.9464 21.15
56.97973 21.15
57.01307 20.95
57.0464 20.75
57.07973 20.75
57.10806 19.85
57.1414 18.55
57.17204 18.55
57.20096 17.25
57.22907 17.25
57.26119 15.7
57.29452 13.75
57.32422 13.75
57.35165 12
57.38498 11.1
57.41443 11.1
57.44776 11.1
57.47601 11.1
57.50755 11.1
57.53769 11.1
57.56602 11.1
57.59936 11.1
57.63269 11.35
57.66532 11.35
57.69728 11.35
57.72874 11.35
57.76207 11.35
57.79232 11.35
57.82387 10.9
57.85182 10.9
57.88381 9.6
57.91714 8.05
57.94722 8.05
57.97895 5.85
58.00785 3.7
58.03827 3.7
58.0716 1.05
58.10343 -1.5
58.13382 -1.5
58.1653 -3.05
58.19436 -3.05
58.2277 -3.7
58.25867 -3.7
58.29143 -3.7
58.32085 -3.7
58.34987 -3.7
58.3832 -3.7
58.416 -3.7
58.44933 -3.7
58.47791 -3.7
58.51125 -4.15
58.54458 -4.55
58.57788 -4.55
58.60933 -5.2
58.63903 -5.65
58.67236 -5.65
58.7057 -5.65
58.73903 -5.65
58.77237 -5.65
58.80347 -5.65
58.83172 -5.65
58.86505 -5.65
58.89449 -5.65
58.92552 -5.65
58.95398 -5.65
58.98131 -5.65
59.01464 -5.65
59.04338 -5.65
59.07672 -5.65
59.11005 -5.65
59.14177 -5.65
59.1751 -5.65
59.20844 -5.65
59.23601 -5.65
59.26935 -5.65
59.30059 -5.65
59.33393 -5.65
59.36507 -5.65
59.3984 -5.65
59.43046 -5.65
59.45956 -5.65
59.49289 -5.65
59.52622 -5.65
59.55593 -5.65
59.5845 -5.65
59.61783 -5.65
59.65117 -5.65
59.6797 -5.65
59.7121 -5.2
59.7421 -4.8
59.77544 -4.8
59.80877 -4.15
59.83843 -3.45
59.86676 -3.45
59.9001 -2.8
59.9329 -2.6
59.96624 -2.6
59.99419 -2.6
60.02752 -2.6
60.05761 -2.6
60.09094 -2.4
60.12428 -1.7
60.15448 -1.7
60.1866 -1.05
60.21485 -1.05
60.24348 0
60.27682 1.05
60.30595 1.05
60.33929 1.5
60.36801 1.95
60.39656 1.95
60.4299 2.4
60.45895 2.4
60.4865 3.25
60.5188 4.15
60.55213 4.15
60.58546 5.2
60.6138 5.65
60.64608 5.65
60.67941 5.65
60.7114 5.65
60.74473 5.65
60.77564 5.65
60.80839 5.45
60.83825 5.45
60.86607 5.2
60.89941 5
60.93032 5
60.96092 5
60.99018 5
61.02351 5
61.05684 5
61.0887 5
61.116 5
61.14528 5.2
61.17711 5.2
61.21045 5.45
61.23749 5.85
61.26676 5.85
61.29633 6.55
61.325 6.55
61.35834 7.2
61.38778 7.85
61.41769 7.85
61.45103 8.05
61.48194 8.3
61.51527 8.3
61.54494 8.5
61.57726 9.15
61.60587 9.15
61.63806 9.6
61.67139 10
61.69961 10
61.72912 10.25
61.76245 10.25
61.79311 10.25
61.82645 10.25
61.8545 10.25
61.88549 10.25
61.91546 10.25
61.94621 10.25
61.97954 10.25
62.01081 10.25
62.04415 10.25
62.07726 10
62.10642 10
62.13976 10
62.16885 10
62.19877 10
62.22706 10.25
62.2558 10.25
62.28913 10.45
62.31763 10.9
62.35096 10.9
62.38429 11.55
62.41468 11.75
62.44802 12
62.47985 12
62.51173 12
62.5449 12
62.57441 12
62.60775 12
62.63747 12
62.66685 12
62.69764 12
62.72811 12
62.76144 12
62.79123 12
62.82043 12
62.84843 12
62.87968 12
62.91301 12
62.94097 12
62.96855 12
62.99766 12
63.02837 12
63.06146 12
63.0912 12
63.12453 12
63.15585 12
63.18913 12
63.22247 12
63.25507 12
63.28541 12
63.31569 12
63.34248 12
63.37581 12
63.40467 12
63.43256 11.55
63.46095 11.55
63.49428 11.1
63.52761 10.7
63.5575 10.7
63.59084 10
63.62041 9.15
63.65148 9.15
63.68437 8.5
63.71231 8.5
63.7453 7.6
63.7761 6.75
63.80601 6.75
63.83841 5.85
63.86957 5.2
63.89829 5.2
63.92736 4.15
63.95667 4.15
63.99001 3.45
64.01846 2.6
64.04778 2.6
64.07491 2.15
64.10689 2.15
64.14022 1.5
64.17158 1.05
64.20134 1.05
64.23075 0.65
64.26227 0
64.2956 0
64.32874 -0.4
64.36208 -0.4
64.39053 -0.4
64.42386 -0.4
64.4572 -0.4
64.49001 -0.4
64.51949 -0.4
64.55009 -0.4
64.58134 -0.4
64.61467 -0.4
64.64423 -0.4
64.67128 -0.4
64.70461 -0.4
64.73744 -0.4
64.77077 -0.4
64.79942 -0.4
64.8324 -0.4
64.86265 -0.65
64.89179 -1.5
64.92513 -1.5
64.9543 -2.15
64.98685 -2.15
65.01511 -3.25
65.04412 -4.35
65.07745 -4.35
65.10767 -5
65.13956 -6.1
65.16772 -6.1
65.20105 -6.95
65.23439 -7.4
65.26182 -7.4
65.29299 -7.4
65.323 -7.4
65.35583 -7.4
65.38916 -7.2
65.42061 -7.2
65.44854 -6.75
65.48063 -5.85
65.51245 -5.85
65.54578 -5
65.57737 -5
65.60831 -3.9
65.63797 -3.45
65.66969 -3.45
65.70302 -3.45
65.73279 -4.15
65.76234 -4.15
65.79042 -5.65
65.82294 -5.65
65.85628 -7.2
65.88798 -9.35
65.91539 -9.35
65.94421 -10.25
65.97528 -10.9
66.00861 -10.9
66.03638 -10.9
66.06778 -10.9
66.10111 -10.9
66.13102 -10.45
66.16435 -10.45
66.19251 -10
66.22257 -9.15
66.25589 -9.15
66.28428 -8.3
66.31761 -7.4
66.34608 -7.4
66.37878 -6.55
66.40965 -6.55
66.44298 -5.45
66.47631 -4.8
66.50588 -3.7
66.53734 -3.7
66.56395 -3.05
66.59268 -3.05
66.62601 -2.4
66.65831 -1.95
66.68687 -1.95
66.71865 -1.3
66.74816 -1.3
66.78149 -0.85
66.81044 -0.2
66.83959 -0.2
66.86848 0.85
66.89699 0.85
66.92919 1.5
66.95882 2.15
66.98801 2.15
67.01589 2.8
67.04292 2.8
67.07182 3.45
67.10515 4.15
67.13848 4.15
67.16592 4.55
67.19499 4.55
67.22761 4.8
67.26094 5
67.29173 5
67.32507 5
67.3544 5
67.38251 5
67.41479 5
67.44812 5
67.4763 5
67.50336 5
67.53269 5
67.56602 5
67.59497 5
67.6283 5
67.65594 5
67.68485 5
67.71819 5
67.75111 5
67.77972 5
67.81195 4.8
67.84215 4.15
67.87548 4.15
67.90266 3.05
67.93576 1.7
67.9664 1.7
67.99458 0.65
68.02791 0.65
68.0569 -0.4
68.08633 -0.85
68.11906 -0.85
68.14861 -0.85
68.18194 -1.05
68.21243 -1.05
68.24424 -1.7
68.27156 -1.7
68.30347 -2.4
68.3368 -3.25
68.36646 -3.25
68.39471 -4.15
68.42575 -4.8
68.45483 -4.8
68.48816 -5
68.52145 -5
68.55282 -5
68.58199 -5
68.61193 -5
68.64526 -4.55
68.6786 -2.8
68.7086 -2.8
68.73869 1.7
68.76651 1.7
68.79984 8.95
68.82838 15.05
68.85571 15.05
68.88331 21.15
68.91273 21.15
68.94117 24.9
68.9745 27.3
69.00102 27.3
69.03091 28.35
69.06226 28.35
69.09126 30.1
69.1246 32.5
69.15726 32.5
69.18904 35.8
69.2179 38.85
69.24742 38.85
69.28075 41.5
69.31109 44.1
69.34442 44.1
69.37342 45.85
69.40589 45.85
69.43922 48.25
69.47189 50.45
69.50207 50.45
69.53131 52.4
69.56347 53.95
69.5968 53.95
69.63013 55.45
69.66042 57.2
69.68953 57.2
69.72071 58.5
69.75405 60.05
69.78625 60.05
69.81959 60.9
69.85075 61.8
69.87805 61.8
69.91138 61.8
69.94406 61.8
69.97262 62
70.00231 62.45
70.03199 62.45
70.06532 63.1
70.09441 63.55
70.12337 63.55
70.15184 64.65
70.18176 64.65
70.2151 66.6
70.24254 69.2
70.27454 69.2
70.30331 72.7
70.33139 72.7
70.36472 76.65
70.39598 81.25
70.42485 81.25
70.45454 85.8
70.48756 89.75
70.52089 89.75
70.55176 93.9
70.58176 98.95
70.61127 98.95
70.64202 102
70.67535 103.95
70.70642 103.95
70.7337 107.65
70.76173 107.65
70.7899 111.4
70.82323 114
70.85342 114
70.88469 117.95
70.91469 117.95
70.94487 121.45
70.9782 123.85
71.00838 123.85
71.03745 126.25
71.0656 126.25
71.09355 128.2
71.12296 129.1
71.1563 129.1
71.18963 129.3
71.21819 129.3
71.24771 129.3
71.27759 129.3
71.31092 129.3
71.34258 129.3
71.37237 129.3
71.4005 129.3
71.42815 129.3
71.46149 129.3
71.49359 129.3
71.5232 129.3
71.55198 128.4
71.58012 128.4
71.61346 126.45
71.64255 126.45
71.6706 122.95
71.69995 118.15
71.73328 118.15
71.76662 111.6
71.79559 111.6
71.82314 100.7
71.85177 88.25
71.88135 88.25
71.90926 76.45
71.9426 76.45
71.97427 65.95
72.00323 60.9
72.03257 60.9
72.06173 51.55
72.09506 43.45
72.12713 43.45
72.15953 37.1
72.18745 29.9
72.21649 29.9
72.24982 24.9
72.27837 24.9
72.3074 20.75
72.33769 19
72.36649 19
72.39982 18.75
72.42873 18.75
72.45666 18.75
72.48617 18.75
72.51775 18.75
72.55108 18.75
72.5799 18.75
72.61155 18.75
72.64338 18.75
72.67086 18.75
72.70419 18.75
72.73343 18.75
72.76244 18.75
72.79026 18.75
72.82001 18.75
72.85335 18.3
72.8841 17.45
72.9132 17.45
72.9441 14.4
72.97262 14.4
73.00595 11.75
73.03617 8.95
73.06532 8.95
73.09454 7.85
73.12386 7.4
73.15719 7.4
73.18519 7.4
73.21402 7.4
73.24387 7.4
73.27482 7.4
73.30815 7.4
73.33759 7.4
73.37092 7.4
73.39747 7.4
73.42715 7.4
73.46049 7.4
73.48806 7.4
73.51917 7.4
73.54832 7.4
73.58005 7.4
73.61338 7.4
73.64046 7.4
73.67348 7.4
73.70676 7.4
73.74009 7.4
73.77342 7.4
73.80545 7.4
73.83612 7.4
73.86713 7.4
73.89723 7.4
73.93057 7.4
73.96387 7.4
73.99642 7.4
74.02975 7.4
74.05944 7.4
74.09277 7.4
74.12176 7.4
74.15228 7.4
74.1847 7.4
74.21437 7.4
74.2477 7.4
74.27789 7.4
74.30981 7.4
74.34068 7.4
74.36921 7.4
74.40231 7.4
74.43565 7.4
74.46607 7.4
74.49444 7.4
74.52242 7.4
74.55575 7.4
74.58908 7.4
74.61909 7.4
74.64788 7.4
74.68062 7.4
74.71395 7.4
74.74198 7.4
74.77531 7.4
74.80865 7.4
74.83814 7.4
74.87148 7.4
74.89983 7.4
74.93282 7.4
74.9618 7.4
74.98907 7.4
75.0224 7.4
75.05139 7.4
75.08189 7.4
75.11025 7.4
75.14359 7.4
75.17692 7.4
75.21025 7.4
75.23843 7.4
75.26761 7.4
75.30016 7.4
75.33349 7.4
75.36475 7.4
75.39108 7.4
75.41947 7.4
75.4528 7.4
75.48615 7.4
75.51374 7.4
75.54319 7.4
75.57314 7.4
75.60489 7.4
75.63818 7.4
75.6711 7.4
75.70444 7.4
75.73563 7.4
75.76311 7.4
75.79645 7.4
75.82829 7.4
75.85622 7.4
75.88354 7.4
75.9149 7.4
75.94823 7.4
75.97749 7.4
76.00591 7.4
76.03919 7.4
76.06825 7.4
76.10159 7.4
76.13492 7.4
76.16496 7.4
76.19549 7.4
76.2258 7.4
76.25913 7.4
76.29247 7.4
76.32567 7.4
76.35524 7.4
76.3832 7.4
76.41653 7.4
76.44534 7.4
76.47417 7.4
76.50301 7.4
76.53625 7.4
76.56959 7.4
76.59788 7.4
76.62626 7.4
76.65521 7.4
76.68855 7.4
76.72188 7.4
76.75275 7.4
76.7811 7.4
76.81077 7.4
76.8434 7.4
76.87673 7.4
76.90675 7.4
76.94008 7.4
76.97294 7.4
77.00217 7.4
77.03551 7.4
77.06516 7.4
77.09283 7.4
77.12078 7.4
77.15012 7.4
77.18346 7.4
77.21143 7.4
77.23865 7.4
77.26817 7.4
77.30034 7.4
77.33367 7.4
77.36243 7.4
77.39267 7.4
77.42375 7.4
77.45383 7.4
77.48717 7.4
77.51884 7.4
77.54758 7.4
77.57758 7.4
77.60892 7.4
77.64225 7.4
77.67161 7.4
77.69995 7.4
77.72684 7.4
77.76017 7.4
77.7935 7.4
77.82372 7.4
77.85669 7.4
77.8865 7.4
77.91818 7.4
77.95152 7.4
77.97962 7.4
78.01295 7.4
78.04629 7.4
78.0752 7.4
78.10854 7.4
78.14126 7.4
78.17161 7.4
78.1995 7.4
78.22871 7.4
78.26205 7.4
78.2908 7.4
78.31969 7.4
78.35168 7.4
78.38219 7.4
78.41553 7.4
78.44473 7.4
78.4738 7.4
78.50248 7.4
78.53139 7.4
78.56474 7.4
78.59567 7.4
78.62601 7.4
78.65689 7.4
78.68865 7.4
78.72198 7.4
78.75261 7.4
78.78488 7.4
78.8163 7.4
78.84461 7.4
78.87794 7.4
78.90838 7.4
78.93758 7.4
78.96856 7.4
78.99968 7.4
79.03301 7.4
79.06339 7.4
79.09245 7.4
79.1218 7.4
79.15132 7.4
79.18465 7.4
79.21272 7.4
79.24342 7.4
79.27675 7.4
79.30615 7.4
79.33949 7.4
79.37144 7.4
79.40478 7.4
79.43237 7.4
79.4603 7.4
79.49364 7.4
79.52283 7.4
79.55028 7.4
79.58284 7.4
79.61153 7.4
79.64487 7.4
79.67658 7.4
79.7086 7.4
79.73971 7.4
79.76984 7.4
79.80318 7.4
79.83182 7.4
79.86515 7.4
79.89794 7.4
79.92707 7.4
79.9604 7.4
79.9933 7.4
80.0228 7.4
80.05309 7.4
80.08327 7.4
80.1166 7.4
80.14962 7.4
80.18139 7.4
80.21255 7.4
80.24337 7.4
80.2767 7.4
80.30437 7.4
80.33183 7.4
80.36218 7.4
80.39382 7.4
80.42715 7.4
80.45759 7.4
80.49092 7.4
80.52253 7.4
80.55518 7.4
80.58852 7.4
80.61896 7.4
80.64788 7.4
80.67693 7.4
80.71027 7.4
80.7436 7.4
80.77343 7.4
80.80574 7.4
80.83389 7.4
80.86628 7.4
80.89961 7.4
80.92889 7.4
80.95627 7.4
80.9896 7.4
81.0222 7.4
81.05553 7.4
81.08411 7.4
81.11583 7.4
81.14668 7.4
81.18002 7.4
81.21294 7.4
81.24181 7.4
81.27206 7.4
81.30229 7.4
81.3335 7.4
81.36684 7.4
81.39985 7.4
81.43031 7.4
81.45884 7.4
81.49217 7.4
81.52551 7.4
81.55339 7.4
81.58637 7.4
81.61768 7.4
81.65101 7.4
81.68434 7.4
81.71571 7.4
81.74904 7.4
81.78237 7.4
81.81158 7.4
81.84492 7.4
81.87825 7.4
81.90761 7.4
81.93578 7.4
81.96505 7.4
81.99839 7.4
82.03069 7.4
82.05956 7.4
82.09123 7.4
82.12457 7.4
82.1579 7.4
82.18709 7.4
82.21527 7.4
82.2486 7.4
82.28106 7.4
82.31439 7.4
82.34299 7.4
82.37323 7.4
82.40337 7.4
82.43285 7.4
82.46619 7.4
82.49612 7.4
82.52802 7.4
82.55924 7.4
82.59258 7.4
82.62591 7.4
82.65867 7.4
82.68842 7.4
82.71793 7.4
82.74815 7.4
82.78148 7.4
82.81184 7.4
82.83903 7.4
82.86858 7.2
82.89948 7.2
82.93281 6.55
82.96579 5.65
82.99589 5.65
83.02571 4.8
83.05462 3.7
83.08795 3.7
83.11652 3.25
83.14985 3.25
83.18318 2.8
83.21606 2.8
83.2494 2.8
83.279 2.8
83.30875 2.8
83.34185 2.8
83.3707 2.8
83.40404 2.8
83.43203 2.8
83.46151 2.8
83.49137 2.8
83.5247 2.8
83.55804 2.6
83.58781 2.15
83.62016 2.15
83.65195 1.05
83.68528 1.05
83.71861 0.4
83.74874 0.2
83.77731 0.2
83.81064 0.2
83.83987 0.2
83.87321 0.2
83.90614 0.2
83.93948 0.2
83.96671 0.2
84.00005 0.2
84.03338 0.2
84.06425 0.2
84.09192 0.2
84.12294 0.2
84.15627 0.2
84.18961 0.2
84.21777 0.2
84.25052 0.2
84.28133 0.2
84.31467 0.2
84.34777 0.2
84.37675 0.2
84.40545 0.2
84.43598 0.2
84.46404 0.2
84.49738 0.2
84.53072 0.2
84.55956 0.2
84.58644 0.2
84.61623 0.2
84.64603 0.2
84.67936 0.2
84.7072 0.2
84.73582 0.2
84.76682 0.2
84.79655 0.2
84.82988 0.2
84.85895 0.2
84.88783 0.2
84.91685 0.2
84.94734 0.2
84.98067 0.2
85.00958 0.2
85.04025 0.2
85.0669 0.2
85.09954 0.2
85.13287 0.2
85.16292 0.2
85.1912 0.2
85.22453 0.2
85.25494 0.2
85.28827 0.2
85.31864 0.2
85.35023 0.2
85.37888 0.2
85.41222 0.2
85.44556 0.2
85.47541 0.2
85.50674 0.2
85.53462 0.2
85.56241 0.2
85.59574 0.2
85.62457 0.2
85.65352 0.2
85.68147 0.2
85.71249 0.2
85.74582 0.2
85.77524 0.2
85.80827 0.2
85.83761 0.2
85.86736 0.2
85.9007 0.2
85.92793 0.2
85.96075 0.2
85.99409 0.2
86.02351 0.2
86.05658 0.2
86.08549 0.2
86.11653 0.2
86.14835 0.2
86.18018 0.2
86.21351 0.2
86.24684 0.2
86.27522 0.2
86.30351 0.2
86.33406 0.2
86.36739 0.2
86.40073 0.2
86.43164 0.2
86.46003 0.2
86.48879 0.2
86.52213 0.2
86.55546 0.2
86.58366 0.2
86.6121 0.2
86.64543 0.2
86.67877 0.2
86.70837 0.2
86.74171 0.2
86.77143 0.2
86.80077 0.2
86.8341 0.2
86.86674 0.2
86.89405 0.2
86.92207 0.2
86.95348 0.2
86.98682 0.2
87.01537 0.2
87.04294 0.2
87.07188 0.2
87.10224 0.2
87.13557 0.2
87.16277 0.2
87.19289 0.2
87.22428 0.2
87.25321 0.2
87.28654 0.2
87.31573 0.2
87.34615 0.2
87.37333 0.2
87.40041 0.2
87.42921 0.2
87.46255 0.2
87.48979 0.2
87.51646 0.2
87.54934 0.2
87.58267 0.2
87.616 0.2
87.64934 0.2
87.67773 0.2
87.70679 0.2
87.74013 0.2
87.77254 0.2
87.80587 0.2
87.83379 0.2
87.86212 0.2
87.88905 0.2
87.92238 0.2
87.95137 0.2
87.98032 0.2
88.00761 0.2
88.03719 0.2
88.07053 0.2
88.10386 0.2
88.13627 0.2
88.16444 0.2
88.19563 0.2
88.22897 0.2
88.25871 0.2
88.28786 0.2
88.31929 0.2
88.34692 0.2
88.37947 0.2
88.40984 0.2
88.44046 0.2
88.46981 0.2
88.49867 0.2
88.53201 0.2
88.56111 0.2
88.59055 0.2
88.61867 0.2
88.6485 0.2
88.68183 0.2
88.70985 0.2
88.7412 0.2
88.76974 0.2
88.80309 0.2
88.83642 0.2
88.86761 0.2
88.90095 0.2
88.93104 0.2
88.95859 0.2
88.99192 0.2
89.02069 0.2
89.05074 0.2
89.08407 0.2
89.11388 0.2
89.14721 0.2
89.17929 0.2
89.20885 0.2
89.23575 0.2
89.26522 0.2
89.29855 0.2
89.3279 0.2
89.35581 0.2
89.38614 0.2
89.41495 0.2
89.44828 0.2
89.47673 0.2
89.50875 0.2
89.5419 0.2
89.57065 0.2
89.60356 0.2
89.63165 0.2
89.66056 0.2
89.68925 0.2
89.71896 0.2
89.74822 0.2
89.78156 0.2
89.81154 0.2
89.83806 0.2
89.87088 0.2
89.90421 0.2
89.93755 0.2
89.96546 0.2
89.99448 0.2
90.02336 0.2
90.05254 0.2
90.08587 0.2
90.11725 0.2
90.14747 0.2
90.17572 0.2
90.20242 0.2
90.23576 0.2
90.26463 0.2
90.29288 0.2
90.3194 0.2
90.35178 0.2
90.38512 0.2
90.41434 0.2
90.44244 0.2
90.47296 0.2
90.50533 0.2
90.53866 0.2
90.56573 0.2
90.5966 0.2
90.62548 0.2
90.65625 0.2
90.68922 0.2
90.71961 0.2
90.74849 0.2
90.77984 0.2
90.80989 0.2
90.84322 0.2
90.87485 0.2
90.90275 0.2
90.93542 0.2
90.96478 0.2
90.99812 0.2
91.02521 0.2
91.05194 0.2
91.08289 0.2
91.11572 0.2
91.14906 0.2
91.18211 0.2
91.21544 0.2
91.24559 0.2
91.27355 0.2
91.30688 0.2
91.34022 0.2
91.36906 0.2
91.39615 0.2
91.42332 0.2
91.45666 0.2
91.48962 0.2
91.51743 0.2
91.5452 0.2
91.5765 0.2
91.60983 0.2
91.63745 0.2
91.66425 0.2
91.69413 0.2
91.72713 0.2
91.76046 0.2
91.79063 0.2
91.82003 0.2
91.85257 0.2
91.88107 0.2
91.91321 0.2
91.94263 0.2
91.97163 0.2
92.00497 0.2
92.03279 0.2
92.06612 0.2
92.09776 0.2
92.12734 0.2
92.15471 0.2
92.18623 0.2
92.21956 0.2
92.2523 0.2
92.28564 0.2
92.31592 0.2
92.34925 0.2
92.38258 0.2
92.40915 0.2
92.43816 0.2
92.47149 0.2
92.49915 0.2
92.53248 0.2
92.55985 0.2
92.5885 0.2
92.61624 0.2
92.64872 0.2
92.68205 0.2
92.71375 0.2
92.74449 0.2
92.77402 0.2
92.80408 0.2
92.83742 0.2
92.86539 0.2
92.89433 0.2
92.92425 0.2
92.95758 0.2
92.99091 0.2
93.01804 0.2
93.05112 0.2
93.08125 0.2
93.10935 0.2
93.14268 0.2
93.17454 0.2
93.20405 0.2
93.23463 0.2
93.26506 0.2
93.29839 0.2
93.33173 0.2
93.36015 0.2
93.3913 0.2
93.42155 0.2
93.45489 0.2
93.48402 0.2
93.5124 0.2
93.54183 0.2
93.57182 0.2
93.60516 0.2
93.6365 0.2
93.66645 0.2
93.69644 0.2
93.72636 0.2
93.75969 0.2
93.79302 0.2
93.82243 0.2
93.85445 0.2
93.88322 0.2
93.91656 0.2
93.94544 0.2
93.97878 0.2
94.00652 0.2
94.03513 0.2
94.06847 0.2
94.10128 0.2
94.12853 0.2
94.16187 0.2
94.19075 0.2
94.22408 0.2
94.25092 0.2
94.28285 0.2
94.31618 0.2
94.34648 0.2
94.37981 0.2
94.41234 0.2
94.44567 0.2
94.47673 0.2
94.50693 0.2
94.54026 0.2
94.57359 0.2
94.60164 0.2
94.63036 0.2
94.66369 0.2
94.69702 0.2
94.72578 0.2
94.75302 0.2
94.78131 0.2
94.8121 0.2
94.84544 0.2
94.87877 0.2
94.90888 0.2
94.93838 0.2
94.96864 0.2
95.00198 0.2
95.031 0.2
95.06433 0.2
95.09382 0.2
95.12204 0.2
95.15537 0.2
95.18871 0.2
95.21568 0.2
95.24365 0.2
95.27699 0.2
95.31032 0.2
95.33868 0.2
95.36804 0.2
95.39828 0.2
95.42771 0.2
95.46104 0.2
95.48917 0.2
95.52104 0.2
95.55438 0.2
95.58217 0.2
95.6155 0.2
95.64539 0.2
95.67553 0.2
95.70634 0.2
95.73504 0.2
95.76838 0.2
95.79837 0.2
95.82778 0.2
95.85831 0.2
95.89164 0.2
95.92497 0.2
95.95341 0.2
95.98127 0.2
96.01022 0.2
96.04003 0.2
96.07336 0.2
96.1067 0.2
96.13605 0.2
96.16663 0.2
96.19606 0.2
96.22939 0.2
96.26018 0.2
96.28861 0.2
96.32195 0.2
96.35079 0.2
96.38412 0.2
96.41676 0.2
96.44556 0.2
96.47615 0.2
96.50645 0.2
96.53979 0.2
96.56788 0.2
96.59636 0.2
96.62639 0.2
96.65758 0.2
96.69091 0.2
96.71804 0.2
96.74857 0.2
96.78046 0.2
96.80936 0.2
96.8427 0.2
96.87328 0.2
96.90325 0.2
96.93173 0.2
96.9595 0.2
96.99284 0.2
97.02189 0.2
97.05183 0.2
97.0807 0.2
97.10986 0.2
97.1432 0.2
97.17606 0.2
97.20268 0.2
97.23255 0.2
97.26306 0.2
97.29639 0.2
97.32709 0.2
97.36042 0.2
97.3912 0.4
97.41939 0.4
97.45272 0.4
97.48186 0.4
97.51068 0.4
97.54401 0.4
97.57209 0.4
97.60543 0.4
97.63397 0.4
97.6652 0.4
97.69235 0.4
97.72325 0.4
97.75658 0.4
97.78422 0.4
97.81251 0.4
97.84186 0.4
97.87167 0.4
97.90501 0.4
97.93236 0.4
97.96299 0.4
97.9924 0.4
98.02235 0.4
98.05569 0.4
98.08902 0.4
98.12027 0.4
98.14762 0.4
98.17911 0.4
98.21244 0.4
98.24393 0.4
98.27225 0.4
98.29928 0.4
98.33146 0.2
98.36479 0
98.39352 0
98.42393 0
98.45266 0
98.48097 0
98.51431 0
98.5406 0
98.56979 0
98.60262 0
98.63502 0
98.66835 0
98.69812 0
98.73145 0
98.75922 0
98.79064 0
98.82397 0
98.85344 0
98.8858 0
98.91318 0
98.94587 0
98.9792 0
99.00969 0
99.04106 0
99.07439 0
99.10773 0
99.14106 0
99.16931 0
99.19785 0
99.2282 0
99.25969 0
99.29302 0
99.3211 0
99.35121 0
99.3802 0
99.40788 0
99.44122 0
99.47124 0
99.49962 0
99.52603 0
99.5556 0
99.58521 0
99.61854 0
99.6462 0
99.67857 0
99.71046 0
99.74083 0
99.77407 0
99.80468 0
99.83801 0
99.87114 0
99.90425 0
99.93758 0
99.9672 0
100.0005 0
100.0291 0
100.0593 0
100.0926 0
100.1211 0
100.1507 0
100.1837 0
100.2136 0
100.2469 0
100.2744 0
100.3056 0
100.3369 0
100.3652 0
100.3986 0
100.4281 0
100.4603 0
100.4885 0
100.5199 0
100.5532 0
100.5866 0
100.6149 0
100.648 0
100.6771 0
100.7105 0
100.7386 0
100.7675 0
100.8008 0
100.8292 0
100.8625 0
100.8941 0
100.9232 0
100.9545 0
100.9875 0
101.0208 0
101.0517 0
101.0846 0
101.1139 0
101.1451 0
101.1785 0
101.2105 0
101.2415 0
101.2702 0
101.3005 0
101.3338 0
101.3626 0
101.3908 0
101.4214 0
101.4515 0
101.4848 0
101.5124 0
101.5457 0
101.5751 0
101.6074 0
101.6406 0
101.6696 0
101.7014 0
101.7295 0
101.7575 0
101.7908 0
101.8225 0
101.8512 0
101.8845 0
101.9178 0
101.9512 0
101.9822 0
102.0139 0
102.0445 0
102.0738 0
102.1071 0
102.1385 0
102.1712 0
102.2037 0
102.237 0
102.27 0
102.3011 0
102.3344 0
102.3662 0
102.3944 0
102.4277 0
102.4591 0
102.489 0
102.521 0
102.5521 0
102.5854 0
102.6155 0
102.6479 0
102.6812 0
102.7108 0
102.7441 0
102.7718 0
102.8005 0
102.8289 0
102.8576 0
102.8909 0
102.9197 0
102.9493 0
102.9826 0
103.0126 0
103.046 0
103.0759 0
103.1041 0
103.1375 0
103.169 0
103.2024 0
103.2327 0
103.2597 0
103.2891 0
103.3184 0
103.3518 0
103.3833 0
103.4126 0
103.4415 0
103.4748 0
103.5082 0
103.5409 0
103.5703 0
103.6037 0
103.6312 0
103.6646 0
103.6973 0
103.7275 0
103.7549 0
103.7848 0
103.8182 0
103.8457 0
103.8736 0
103.903 0
103.9335 0
103.9669 0
103.9942 0
104.0242 0
104.0536 0
104.0869 0
104.1202 0
104.1503 0
104.1819 0
104.2135 0
104.2464 0
104.2797 0
104.313 0
104.3464 0
104.3723 0
104.4027 0
104.436 0
104.4646 0
104.4933 0
104.5266 0
104.559 0
104.5924 0
104.6204 0
104.649 0
104.6819 0
104.7138 0
104.7472 0
104.7805 0
104.8132 0
104.8431 0
104.8765 0
104.9098 0
104.9417 0
104.9697 0
105.003 0
105.0326 0
105.0659 0
105.0959 0
105.1226 0
105.1529 0
105.1817 0
105.2151 0
105.242 0
105.2753 0
105.3086 0
105.339 0
105.3723 0
105.4018 0
105.4313 0
105.4601 0
105.4885 0
105.5219 0
105.5532 0
105.5865 0
105.6142 0
105.6444 0
105.6777 0
105.7064 0
105.7364 0
105.7663 0
105.7977 0
105.8311 0
105.859 0
105.8923 0
105.9257 0
105.9548 0
105.9881 0
106.0186 0
106.0519 0
106.0809 0
106.1105 0
106.1438 0
106.1731 0
106.2022 0
106.2293 0
106.2626 0
106.2959 0
106.3293 0
106.3592 0
106.39 0
106.4196 0
106.4529 0
106.4814 0
106.5101 0
106.5395 0
106.5678 0
106.6012 0
106.6339 0
106.664 0
106.6942 0
106.7243 0
106.7576 0
106.7863 0
106.8141 0
106.8425 0
106.872 0
106.9053 0
106.9387 0
106.9669 0
106.9986 0
107.029 0
107.0624 0
107.0923 0
107.1234 0
107.153 0
107.1839 0
107.2173 0
107.2489 0
107.2822 0
107.3156 0
107.343 0
107.3764 0
107.4097 0
107.442 0
107.4718 0
107.505 0
107.5383 0
107.5716 0
107.5986 0
107.6266 0
107.6566 0
107.69 0
107.7214 0
107.7512 0
107.7817 0
107.8103 0
107.8437 0
107.877 0
107.9103 0
107.942 0
107.9712 0
108.0045 0
108.0379 0
108.0692 0
108.102 0
108.1343 0
108.1676 0
108.1964 0
108.2238 0
108.2526 0
108.286 0
108.3193 0
108.3496 0
108.3798 0
108.4131 0
108.4442 0
108.4775 0
108.5104 0
108.543 0
108.5762 0
108.6095 0
108.6428 0
108.6718 0
108.7016 0
108.7287 0
108.7585 0
108.7918 0
108.82 0
108.8534 0
108.8838 0
108.9172 0
108.9505 0
108.9786 0
109.0118 0
109.04 0
109.0687 0
109.102 0
109.1307 0
109.1595 0
109.1874 0
109.2152 0
109.2485 0
109.2819 0
109.3116 0
109.3422 0
109.3756 0
109.4089 0
109.4373 0
109.4679 0
109.4999 0
109.53 0
109.5633 0
109.595 0
109.6237 0
109.657 0
109.6858 0
109.7191 0
109.7491 0
109.7823 0
109.8136 0
109.8469 0
109.8803 0
109.9091 0
109.9382 0
109.9652 0
109.9944 0
110.0277 0
110.061 0
110.0903 0
110.1236 0
110.1531 0
110.1843 0
110.2177 0
110.248 0
110.2814 0
110.312 0
110.3432 0
110.3765 0
110.4098 0
110.4372 0
110.4638 0
110.4938 0
110.5272 0
110.5586 0
110.5863 0
110.6154 0
110.6465 0
110.6799 0
110.7132 0
110.7426 0
110.7746 0
110.8079 0
110.8412 0
110.8746 0
110.9033 0
110.9344 0
110.9643 0
110.9977 0
111.0287 0
111.0621 0
111.0939 0
111.1242 0
111.1576 0
111.1886 0
111.2154 0
111.2455 0
111.2746 0
111.3079 0
111.3369 0
111.3656 0
111.3953 0
111.4232 0
111.4565 0
111.487 0
111.5162 0
111.5495 0
111.5802 0
111.6135 0
111.6433 0
111.6718 0
111.6993 0
111.7326 0
111.766 0
111.7933 0
111.8195 0
111.8486 0
111.878 0
111.9074 0
111.9407 0
111.9703 0
112.0031 0
112.0339 0
112.0651 0
112.0985 0
112.1293 0
112.1574 0
112.1862 0
112.219 0
112.2524 0
112.2857 0
112.3176 0
112.351 0
112.3827 0
112.416 0
112.4448 0
112.4769 0
112.507 0
112.5362 0
112.5696 0
112.599 0
112.6279 0
112.6557 0
112.6866 0
112.72 0
112.7489 0
112.7776 0
112.8043 0
112.8349 0
112.8683 0
112.9003 0
112.9273 0
112.9563 0
112.9895 0
113.0228 0
113.0499 0
113.0818 0
113.1125 0
113.1415 0
113.1749 0
113.2037 0
113.2327 0
113.2602 0
113.2894 0
113.3191 0
113.3525 0
113.3858 0
113.4152 0
113.446 0
113.4764 0
113.5098 0
113.5377 0
113.5698 0
113.599 0
113.6273 0
113.6606 -0.2
113.691 -0.4
113.7243 -1.05
113.7532 -1.05
113.7865 -1.7
113.8198 -2.6
113.8495 -2.6
113.8778 -3.05
113.9102 -3.05
113.9385 -3.45
113.9718 -3.45
114.0002 -3.45
114.0297 -3.45
114.0594 -3.45
114.0888 -3.45
114.1222 -3.45
114.1525 -3.45
114.1852 -3.45
114.2144 -3.45
114.2438 -3.45
114.2771 -3.45
114.3083 -3.45
114.3379 -3.45
114.3681 -3.45
114.3991 -3.45
114.4324 -3.45
114.4657 -3.45
114.4965 -3.45
114.5242 -3.45
114.553 -3.45
114.5863 -3.45
114.6193 -3.45
114.6462 -3.45
114.675 -3.45
114.7083 -3.45
114.7417 -3.45
114.7703 -3.45
114.8036 -3.45
114.8319 -3.45
114.8646 -3.45
114.8975 -3.45
114.9277 -3.45
114.9588 -3.45
114.9902 -3.45
115.0235 -3.45
115.0569 -3.45
115.0902 -3.7
115.12 -3.7
115.1483 -3.9
115.1816 -4.35
115.2149 -4.35
115.2459 -4.55
115.2742 -4.8
115.3028 -4.8
115.3335 -4.8
115.3668 -4.8
115.3965 -4.8
115.4298 -4.8
115.4624 -4.8
115.4925 -4.8
115.5252 -4.8
115.5547 -4.8
115.5842 -4.8
115.6121 -4.8
115.6393 -4.8
115.6684 -4.8
115.7018 -4.8
115.7328 -4.8
115.7628 -4.8
115.7934 -4.8
115.8268 -4.8
115.8601 -4.8
115.8869 -4.8
115.9173 -4.8
115.9487 -4.8
115.9788 -4.8
116.0121 -4.8
116.0454 -4.8
116.0788 -4.8
116.1069 -4.8
116.1361 -4.8
116.1694 -4.8
116.2028 -4.8
116.2308 -4.8
116.2638 -5
116.2937 -5
116.3271 -5.85
116.3547 -6.75
116.3834 -6.75
116.4123 -7.4
116.4416 -7.4
116.4749 -7.6
116.5022 -7.6
116.5319 -7.6
116.5645 -7.6
116.594 -7.6
116.6274 -7.6
116.6556 -7.6
116.6867 -7.6
116.7201 -7.6
116.7497 -7.6
116.783 -7.6
116.8125 -7.6
116.8407 -7.6
116.8689 -7.6
116.8981 -7.6
116.9314 -7.6
116.9588 -7.6
116.9879 -7.6
117.0213 -7.6
117.0523 -7.6
117.0856 -7.6
117.1124 -7.6
117.145 -7.6
117.1748 -7.6
117.2062 -7.6
117.2387 -7.6
117.2686 -7.6
117.2979 -7.6
117.3254 -7.6
117.3587 -7.6
117.392 -7.6
117.4236 -7.6
117.4561 -7.6
117.4834 -7.6
117.5135 -7.6
117.5468 -7.6
117.5753 -7.6
117.602 -7.6
117.6308 -7.6
117.6639 -7.6
117.6972 -7.6
117.7238 -7.6
117.7571 -7.6
117.7875 -7.6
117.8182 -7.6
117.8513 -7.6
117.8827 -7.6
117.9125 -7.6
117.9452 -7.6
117.9785 -7.6
118.0119 -7.6
118.0452 -7.6
118.0731 -7.6
118.1003 -7.6
118.1305 -7.6
118.1638 -7.6
118.1959 -8.05
118.2242 -8.05
118.2565 -8.5
118.2895 -8.95
118.3228 -8.95
118.3561 -9.35
118.3858 -9.6
118.4177 -9.6
118.4495 -9.8
118.4828 -9.8
118.5161 -9.8
118.548 -10
118.5759 -10
118.6033 -10.7
118.6367 -11.35
118.6695 -11.75
118.6982 -11.75
118.7267 -12.2
118.7567 -12.2
118.79 -12.65
118.8188 -12.85
118.8457 -12.85
118.8753 -13.1
118.9044 -13.1
118.9335 -13.1
118.9669 -13.3
118.9983 -13.3
119.0316 -13.3
119.0598 -13.3
119.0911 -13.3
119.1244 -13.3
119.1577 -13.3
119.1878 -13.3
119.2159 -13.3
119.2456 -13.3
119.2789 -13.3
119.3122 -13.3
119.3406 -13.3
119.3703 -13.3
119.4007 -13.3
119.434 -13.3
119.4618 -13.3
119.4919 -13.3
119.5207 -13.3
119.551 -13.3
119.5844 -13.3
119.6149 -13.3
119.6467 -13.3
119.6798 -13.3
119.7114 -13.3
119.7447 -13.3
119.7747 -13.3
119.8048 -13.3
119.8323 -13.3
119.8618 -13.3
119.8952 -13.75
119.9262 -13.75
119.9578 -14.15
119.9889 -14.15
120.0222 -15.25
120.0555 -16.15
120.0871 -16.15
120.1175 -16.8
120.1476 -17.45
120.1762 -17.45
120.2095 -18.1
120.2382 -18.55
120.2675 -18.55
120.2961 -19.4
120.3238 -19.4
120.3572 -20.05
120.3857 -20.75
120.4191 -20.75
120.4473 -21.15
120.4769 -21.15
120.5102 -21.4
120.543 -21.4
120.576 -21.6
120.6079 -21.6
120.6393 -21.6
120.6727 -22.05
120.7014 -22.05
120.7319 -22.25
120.7615 -22.25
120.7949 -22.25
120.8273 -22.05
120.856 -22.05
120.886 -22.05
120.9151 -22.05
120.9451 -20.75
120.9784 -18.3
121.009 -15.5
121.0367 -15.5
121.0664 -12
121.0972 -12
121.1305 -8.7
121.1582 -6.55
121.1887 -6.55
121.2177 -4.35
121.2507 -4.35
121.2841 -3.05
121.3162 -1.95
121.3496 -1.95
121.3791 -1.3
121.4081 -0.85
121.4414 -0.85
121.4747 -0.65
121.504 -0.2
121.5314 -0.2
121.5625 0.4
121.5958 0.85
121.6248 0.85
121.6536 1.3
121.6869 1.3
121.7203 2.15
121.7536 2.6
121.7829 2.6
121.8102 3.05
121.8428 3.25
121.873 3.25
121.9063 3.45
121.935 4.15
121.9641 4.15
121.9933 4.8
122.0231 4.8
122.0557 5.65
122.0848 6.95
122.1158 6.95
122.1491 8.7
122.1772 8.7
122.2105 10.7
122.2424 12.65
122.2698 12.65
122.3013 14.15
122.3321 15.9
122.3654 15.9
122.3928 17.65
122.4203 17.65
122.4494 18.75
122.4798 19
122.5131 19
122.5442 18.55
122.5725 17.25
122.6009 17.25
122.6342 15.25
122.6665 15.25
122.6966 12.45
122.7292 9.15
122.7625 9.15
122.792 6.3
122.8253 4.35
122.8543 4.35
122.8822 3.7
122.9096 3.7
122.9388 3.45
122.967 4.8
123.0004 4.8
123.0288 5.65
123.0621 5.65
123.0922 5.65
123.1212 5.65
123.1545 5.65
123.1858 5.65
123.2158 5.65
123.2427 5.65
123.276 5.65
123.3094 5.85
123.3381 5.85
123.3667 6.3
123.4001 6.55
123.4293 6.55
123.4626 6.55
123.4945 6.1
123.5242 6.1
123.5528 4.35
123.582 4.35
123.6153 2.4
123.6432 0.65
123.6765 0.65
123.7051 -1.3
123.7342 -1.3
123.7676 -2.6
123.8009 -3.45
123.8335 -3.45
123.8613 -3.7
123.8906 -3.7
123.9239 -3.7
123.9568 -3.7
123.9901 -3.9
124.0169 -3.9
124.0502 -4.55
124.0835 -4.55
124.1151 -5.45
124.1422 -6.3
124.1727 -6.3
124.2032 -6.75
124.2366 -6.95
124.2652 -6.95
124.295 -7.2
124.3275 -7.2
124.3595 -7.2
124.3929 -7.2
124.4234 -7.2
124.4522 -7.2
124.4852 -7.2
124.5149 -7.2
124.5482 -7.2
124.5816 -7.2
124.6101 -7.2
124.6375 -7.2
124.6676 -7.4
124.7009 -7.4
124.7287 -7.4
124.7574 -7.4
124.7862 -7.4
124.8141 -7.4
124.8431 -7.4
124.8765 -7.4
124.906 -7.4
124.9392 -7.4
124.9718 -7.4
124.9992 -7.4
125.0325 -7.4
125.0651 -7.4
125.0931 -7.4
125.1199 -7.4
125.1511 -7.4
125.1844 -7.4
125.2125 -7.4
125.2414 -7.4
125.2695 -7.4
125.2984 -7.4
125.3317 -7.4
125.3633 -7.4
125.3954 -7.4
125.4287 -7.4
125.458 -7.4
125.4855 -7.4
125.5188 -7.4
125.5486 -7.4
125.5819 -7.4
125.6099 -7.4
125.6398 -7.4
125.6732 -7.4
125.7026 -7.4
125.7347 -7.4
125.763 -7.4
125.7948 -7.4
125.828 -7.4
125.8551 -7.4
125.8847 -7.2
125.916 -7.2
125.9466 -7.2
125.98 -7.2
126.0133 -7.2
126.0462 -7.2
126.0741 -7.2
126.1038 -7.2
126.1371 -7.2
126.1659 -7.2
126.1981 -7.2
126.2296 -7.2
126.2582 -7.2
126.2916 -7.2
126.3249 -7.4
126.3523 -7.4
126.3825 -7.85
126.4131 -7.85
126.4464 -7.85
126.4771 -7.85
126.5087 -7.85
126.5421 -7.85
126.57 -7.85
126.6032 -7.85
126.6322 -7.85
126.6624 -7.85
126.6908 -7.85
126.7174 -7.85
126.7461 -7.85
126.7795 -7.85
126.8128 -7.6
126.8403 -7.6
126.869 -7.6
126.8978 -7.6
126.9311 -7.6
126.9596 -7.6
126.9887 -7.6
127.0221 -7.6
127.0537 -7.6
127.087 -7.6
127.1188 -7.6
127.1518 -7.6
127.1832 -7.6
127.2106 -7.6
127.2439 -7.4
127.2744 -7.4
127.302 -7.4
127.3287 -7.4
127.3585 -7.4
127.3918 -7.2
127.4207 -7.2
127.454 -7.2
127.4835 -7.2
127.5154 -7.2
127.5488 -7.2
127.5769 -7.2
127.6056 -7.2
127.6336 -7.2
127.6669 -7.2
127.7003 -7.2
127.729 -7.2
127.7615 -7.2
127.7901 -7.2
127.8174 -7.2
127.8507 -7.2
127.8839 -7.2
127.9116 -7.2
127.9407 -7.2
127.9705 -7.2
128.0038 -7.2
128.0353 -7.2
128.0668 -7.2
128.098 -7.2
128.1285 -7.2
128.1619 -7.2
128.1912 -7.2
128.2245 -7.2
128.2527 -7.2
128.2836 -7.2
128.3169 -7.2
128.3455 -7.2
128.3744 -7.2
128.4051 -7.2
128.4321 -7.2
128.4633 -7.2
128.4966 -7.2
128.5278 -7.2
128.5559 -7.2
128.5859 -7.2
128.6189 -6.95
128.6522 -6.75
128.6855 -6.75
128.7188 -6.55
128.7488 -6.55
128.7765 -6.55
128.8098 -6.55
128.8419 -6.55
128.8726 -6.55
128.9018 -6.55
128.9319 -6.55
128.9652 -6.55
128.9971 -6.55
129.0262 -6.55
129.0546 -6.55
129.0854 -6.55
129.1188 -6.95
129.1467 -7.4
129.1752 -7.4
129.2085 -8.05
129.2416 -8.5
129.2749 -8.5
129.3035 -8.95
129.3318 -8.95
129.3651 -9.15
129.3925 -9.15
129.4258 -9.15
129.456 -9.15
129.4839 -9.15
129.5123 -9.15
129.5404 -8.95
129.5737 -8.95
129.6071 -8.7
129.6381 -8.05
129.6659 -8.05
129.6943 -7.4
129.7241 -7.4
129.7574 -6.55
129.7839 -5.65
129.8171 -5.65
129.8494 -4.8
129.8814 -4.15
129.9147 -4.15
129.9454 -3.7
129.9736 -3.7
130.0015 -3.7
130.0331 -3.7
130.0665 -3.7
130.0997 -3.7
130.1298 -3.7
130.1573 -3.7
130.1865 -3.7
130.2198 -3.7
130.2531 -3.7
130.2812 -3.7
130.31 -3.7
130.3433 -3.7
130.3766 -3.9
130.4068 -3.9
130.4391 -3.7
130.4695 -2.8
130.5029 -2.8
130.5362 -0.65
130.5692 1.7
130.6007 1.7
130.6295 5.45
130.6573 8.7
130.6906 8.7
130.7197 12.65
130.75 16.6
130.7778 16.6
130.8095 19.2
130.8429 22.7
130.8712 22.7
130.8988 25.95
130.9284 25.95
130.9573 28.8
130.9906 32.75
131.0199 32.75
131.0503 36.65
131.0837 39.95
131.113 39.95
131.1463 43.45
131.1762 47.15
131.2088 47.15
131.2366 50.85
131.2677 50.85
131.301 54.6
131.3291 57.85
131.3559 57.85
131.3841 60.5
131.4139 60.5
131.4472 63.1
131.4805 64.65
131.5139 64.65
131.5425 65.5
131.5723 65.75
131.6045 65.75
131.6378 65.75
131.6691 65.75
131.7006 65.75
131.7331 65.75
131.7628 65.75
131.7961 65.75
131.8255 65.75
131.8579 65.75
131.8889 65.75
131.9222 65.75
131.9555 65.5
131.984 65.5
132.0111 65.05
132.04 65.05
132.0733 65.05
132.1067 64.85
132.1345 64.85
132.1668 64.65
132.1964 64.65
132.2297 64.65
132.263 64.65
132.2925 64.65
132.3259 64.65
132.3556 64.65
132.3842 64.4
132.4175 64.4
132.4466 64.2
132.4789 63.75
132.5083 63.75
132.5383 63.3
132.5716 63.1
132.605 63.1
132.6346 63.1
132.6663 63.1
132.6961 63.1
132.7294 63.1
132.7603 63.1
132.793 63.1
132.8241 63.1
132.8536 63.1
132.8869 62.9
132.9203 62.9
132.9497 62.9
132.9783 62.65
133.0076 62.65
133.0409 62.45
133.0698 62.45
133.0985 62.45
133.1266 62.45
133.1592 62.45
133.1925 62.45
133.2258 62.45
133.2539 62.45
133.2846 62.45
133.3157 62.25
133.3491 62.25
133.379 62.25
133.4123 62
133.4411 62
133.4744 61.8
133.5078 61.8
133.5401 61.8
133.5694 61.35
133.6027 61.15
133.6361 61.15
133.6694 61.15
133.6986 60.9
133.7275 60.9
133.7574 60.9
133.7908 60.9
133.8241 60.9
133.857 60.5
133.8896 60.05
133.9203 60.05
133.9497 59.85
133.983 59.4
134.0122 59.4
134.0414 58.95
134.0714 58.95
134.1047 58.75
134.138 58.3
134.1713 58.3
134.2006 58.1
134.2291 57.85
134.2575 57.85
134.2908 57.65
134.3203 57.65
134.349 57.45
134.3823 57.45
134.4156 57.45
134.4489 57.45
134.4812 57.2
134.5089 57.2
134.5422 56.75
134.5755 55.7
134.6089 54.15
134.6417 54.15
134.6716 51.1
134.7031 51.1
134.7336 46.7
134.7669 42.8
134.7982 42.8
134.8292 36.65
134.8582 36.65
134.8895 30.1
134.9228 22.7
134.9559 22.7
134.9892 16.15
135.0215 9.6
135.0514 9.6
135.0847 1.7
135.1161 -5
135.1445 -5
135.176 -8.95
135.2093 -10.45
135.2427 -10.45
135.2731 -11.1
135.3064 -11.1
135.3356 -11.1
135.3671 -11.1
135.4004 -11.1
135.4335 -11.1
135.4668 -11.1
135.4961 -11.1
135.5239 -11.1
135.5572 -11.1
135.5878 -11.1
135.6196 -11.1
135.6475 -11.1
135.6785 -11.1
135.7118 -11.1
135.7403 -11.1
135.7681 -11.1
135.7974 -11.1
135.8307 -11.1
135.8641 -11.1
135.8913 -11.1
135.9209 -11.1
135.9542 -11.1
135.9875 -11.1
136.0209 -11.1
136.0499 -11.1
136.0797 -11.1
136.1119 -11.1
136.1414 -11.1
136.1747 -11.1
136.2047 -11.1
136.2348 -11.1
136.2649 -11.1
136.2953 -11.1
136.3286 -11.1
136.3587 -11.1
136.3859 -11.1
136.4193 -11.1
136.4494 -11.1
136.4827 -11.1
136.5108 -11.1
136.5415 -11.1
136.5738 -11.1
136.6051 -11.1
136.6385 -11.1
136.6718 -11.1
136.7016 -11.1
136.7349 -11.1
136.7632 -11.1
136.7966 -11.1
136.8258 -11.1
136.8542 -11.1
136.8816 -11.1
136.9137 -11.1
136.947 -11.1
136.9803 -11.1
137.0082 -11.1
137.0373 -11.1
137.0687 -11.1
137.102 -11.1
137.1293 -11.1
137.1591 -11.1
137.1897 -11.1
137.2231 -11.1
137.2564 -11.1
137.2885 -11.1
137.3179 -11.1
137.3483 -11.1
137.3816 -11.1
137.4149 -11.1
137.4468 -11.1
137.4776 -11.1
137.5109 -11.1
137.5421 -11.1
137.5754 -11.1
137.6086 -11.1
137.64 -11.1
137.6691 -11.1
137.7003 -11.1
137.7336 -11.1
137.7609 -11.1
137.7897 -11.1
137.8212 -11.1
137.8498 -11.1
137.8831 -11.1
137.9165 -11.1
137.9463 -11.1
137.9784 -11.1
138.0054 -11.1
138.0388 -11.1
138.0721 -11.1
138.1026 -11.1
138.132 -11.1
138.1653 -11.1
138.1987 -11.1
138.2284 -11.1
138.2571 -11.1
138.2868 -11.1
138.3159 -11.1
138.3492 -11.1
138.3826 -11.1
138.4159 -11.1
138.4462 -11.1
138.4762 -11.1
138.5093 -11.1
138.5411 -11.1
138.5712 -11.1
138.6003 -11.1
138.6311 -11.1
138.6645 -11.1
138.6953 -11.1
138.7255 -11.1
138.7588 -11.1
138.7892 -11.1
138.8225 -11.1
138.8525 -11.1
138.8807 -11.1
138.914 -11.1
138.9473 -11.1
138.9807 -11.1
139.0081 -11.1
139.0379 -11.1
139.0695 -11.1
139.0984 -11.1
139.1317 -11.1
139.1642 -11.1
139.1975 -11.1
139.2289 -11.1
139.2591 -11.1
139.2924 -11.1
139.3211 -11.1
139.3507 -11.1
139.3785 -11.1
139.4119 -11.1
139.4452 -11.1
139.4739 -11.1
139.5022 -11.1
139.533 -10.9
139.5639 -10.9
139.5972 -10.9
139.6268 -10.9
139.6597 -10.9
139.6931 -10.9
139.7262 -10.9
139.7595 -10.9
139.7928 -10.9
139.824 -10.9
139.854 -10.9
139.8846 -10.9
139.9179 -10.9
139.9499 -10.9
139.9832 -10.7
140.0123 -10.45
140.0428 -10.45
140.0761 -10
140.107 -9.8
140.1358 -9.8
140.1648 -9.35
140.1939 -9.35
140.2273 -8.95
140.2549 -8.7
140.2882 -8.7
140.3215 -8.5
140.3521 -8.3
140.3855 -8.3
140.4146 -8.3
140.444 -8.3
140.4729 -8.3
140.5004 -8.3
140.5337 -8.3
140.5631 -8.3
140.592 -8.3
140.6199 -8.3
140.6497 -8.3
140.683 -8.3
140.7123 -8.3
140.7401 -8.3
140.7715 -8.3
140.8034 -8.3
140.8367 -8.3
140.8659 -8.3
140.8992 -8.3
140.9293 -8.3
140.9626 -8.3
140.996 -8.3
141.0247 -8.3
141.0539 -8.3
141.0821 -8.3
141.1154 -8.3
141.1487 -8.3
141.1816 -8.3
141.2095 -8.3
141.2366 -8.3
141.267 -8.3
141.3004 -8.3
141.3308 -8.3
141.3622 -8.3
141.3922 -8.3
141.4215 -8.3
141.4548 -8.3
141.4835 -8.3
141.512 -8.3
141.5454 -8.3
141.5751 -8.3
141.6084 -8.3
141.6384 -8.3
141.6693 -8.3
141.7012 -8.3
141.7283 -8.3
141.7617 -8.3
141.7914 -8.3
141.8198 -8.3
141.8493 -8.3
141.8805 -8.3
141.9138 -8.3
141.9449 -8.3
141.9768 -8.3
142.0063 -8.3
142.0396 -8.3
142.073 -8.3
142.1002 -8.3
142.1302 -8.3
142.1635 -8.3
142.1924 -8.3
142.2257 -8.3
142.259 -8.3
142.2924 -8.3
142.3213 -8.3
142.3547 -8.3
142.388 -8.3
142.4194 -8.3
142.4502 -8.3
142.4778 -8.3
142.5075 -8.3
142.5408 -8.3
142.5705 -8.3
142.603 -8.3
142.6342 -8.3
142.6676 -8.3
142.7009 -8.3
142.7319 -8.3
142.7613 -8.3
142.7899 -8.3
142.823 -8.05
142.8564 -7.85
142.8897 -7.85
142.9216 -7.85
142.9541 -7.85
142.9846 -7.85
143.0179 -7.85
143.0471 -7.85
143.0789 -7.85
143.1057 -7.85
143.1356 -7.85
143.1689 -7.85
143.1973 -7.85
143.225 -7.85
143.2531 -7.85
143.2852 -7.85
143.3185 -7.85
143.3498 -7.85
143.3792 -7.85
143.4107 -7.85
143.4429 -7.85
143.4761 -7.85
143.5067 -7.85
143.5399 -7.85
143.5732 -7.85
143.6021 -7.85
143.6355 -7.85
143.6688 -7.85
143.6982 -7.85
143.7251 -7.85
143.7541 -7.85
143.7874 -7.85
143.8171 -7.85
143.8504 -7.85
143.8837 -7.85
143.9171 -7.85
143.9504 -7.6
143.978 -7.2
144.0113 -7.2
144.0415 -6.3
144.0735 -6.3
144.1069 -6.1
144.1392 -6.1
144.1725 -6.1
144.2021 -6.1
144.2354 -6.1
144.2688 -6.1
144.2988 -6.1
144.328 -6.1
144.3553 -6.1
144.3887 -6.3
144.422 -6.55
144.4519 -6.55
144.4822 -6.95
144.5124 -7.2
144.5416 -7.2
144.575 -7.2
144.6071 -7.2
144.6358 -7.2
144.6672 -7.2
144.6953 -7.2
144.7286 -7.2
144.762 -7.2
144.7912 -7.2
144.8189 -7.2
144.848 -7.2
144.8813 -7.2
144.9102 -7.2
144.9436 -7.2
144.9744 -7.2
145.0054 -7.2
145.0387 -7.2
145.0698 -7.2
145.0966 -7.2
145.1297 -7.2
145.163 -7.2
145.1963 -7.2
145.2237 -7.2
145.2544 -7.2
145.2854 -7.2
145.3136 -7.2
145.3469 -7.2
145.3803 -7.2
145.4133 -7.2
145.4446 -7.2
145.4732 -7.2
145.5065 -7.2
145.5378 -7.2
145.5667 -7.2
145.5939 -7.2
145.6231 -7.2
145.6564 -7.2
145.6845 -7.2
145.7178 -7.2
145.7512 -7.2
145.7822 -7.2
145.8156 -7.2
145.8433 -7.2
145.8756 -7.2
145.9079 -7.2
145.9363 -7.2
145.9697 -7.2
146.003 -7.2
146.0326 -7.2
146.0613 -7.2
146.0944 -7.2
146.1277 -7.2
146.1567 -7.2
146.19 -7.2
146.2175 -7.2
146.2508 -7.2
146.2842 -7.2
146.3118 -7.2
146.34 -7.2
146.3689 -7.2
146.3994 -7.2
146.4328 -7.2
146.4617 -7.2
146.4904 -7.2
146.5201 -7.2
146.5524 -7.2
146.5857 -7.2
146.6168 -7.2
146.6485 -7.2
146.6768 -7.2
146.7041 -7.2
146.7374 -7.2
146.7669 -7.2
146.7966 -7.2
146.8289 -7.2
146.858 -7.2
146.8913 -7.2
146.9247 -7.2
146.958 -7.2
146.9883 -7.2
147.0216 -7.2
147.0549 -7.2
147.0863 -7.2
147.115 -7.2
147.1472 -7.2
147.1757 -7.2
147.209 -7.2
147.238 -7.2
147.2699 -7.2
147.2985 -7.2
147.3271 -7.2
147.3605 -7.2
147.3914 -7.2
147.4211 -7.2
147.448 -7.2
147.4792 -7.2
147.5125 -7.2
147.5404 -7.2
147.5671 -7.2
147.597 -7.2
147.6283 -7.2
147.6616 -7.2
147.6883 -7.2
147.7174 -7.2
147.7464 -7.2
147.7797 -7.2
147.813 -7.2
147.8421 -7.2
147.8726 -7.2
147.9024 -7.2
147.9304 -7.2
147.9637 -7.2
147.9926 -7.2
148.0214 -7.2
148.0484 -7.2
148.0792 -7.2
148.1125 -7.2
148.1407 -7.2
148.1678 -7.2
148.1984 -7.2
148.2296 -7.2
148.2629 -7.2
148.292 -7.2
148.3253 -7.2
148.3584 -7.2
148.3876 -7.2
148.421 -7.2
148.4515 -7.2
148.4806 -7.2
148.5101 -7.2
148.5403 -7.2
148.5737 -7.2
148.6038 -7.2
148.6321 -7.2
148.6631 -7.2
148.6965 -7.2
148.7298 -7.2
148.7592 -7.2
148.7915 -7.2
148.8202 -7.2
148.8495 -7.2
148.8829 -7.2
148.9098 -7.2
148.9387 -7.2
148.968 -7.2
148.9986 -7.2
149.0319 -7.2
149.0606 -7.2
149.0899 -7.2
149.1184 -7.2
149.1456 -7.2
149.179 -7.2
149.2088 -7.2
149.2369 -7.2
149.2697 -7.2
149.2998 -7.2
149.3331 -7.2
149.3636 -7.2
149.3922 -7.2
149.4255 -7.2
149.4576 -7.2
149.4909 -7.2
149.5182 -7.2
149.5478 -7.2
149.5767 -7.2
149.6053 -7.2
149.6387 -7.2
149.6676 -7.2
149.6979 -7.2
149.7256 -7.2
149.7545 -7.2
149.7879 -7.2
149.8212 -7.2
149.8497 -7.2
149.8773 -7.2
149.9065 -7.2
149.9398 -7.2
149.9678 -7.2
149.997 -7.2
150.0282 -7.2
150.0609 -7.2
150.0943 -7.2
150.1225 -7.2
150.1558 -7.2
150.1854 -7.2
150.2144 -7.2
150.2477 -7.2
150.2764 -7.2
150.3086 -7.2
150.3372 -7.2
150.3705 -7.2
150.4039 -7.2
150.4341 -7.2
150.4633 -7.2
150.4911 -7.2
150.5206 -7.2
150.554 -7.2
150.582 -7.2
150.6114 -7.2
150.6448 -7.2
150.6739 -7.2
150.7072 -7.2
150.7349 -7.2
150.7641 -7.2
150.7931 -7.2
150.8265 -7.2
150.8598 -7.2
150.892 -7.2
150.9253 -7.2
150.9586 -7.2
150.9878 -7.2
151.0211 -7.2
151.0543 -7.2
151.0833 -7.2
151.1135 -7.2
151.1447 -7.2
151.178 -7.2
151.2113 -7.2
151.2406 -7.2
151.2699 -7.2
151.3023 -7.2
151.3357 -7.2
151.3642 -7.2
151.3975 -7.2
151.4307 -7.2
151.459 -7.2
151.4923 -7.2
151.5234 -7.2
151.5557 -7.2
151.5844 -7.2
151.6128 -7.2
151.6461 -7.2
151.6756 -7.2
151.7039 -7.2
151.7349 -7.2
151.7648 -7.2
151.7981 -7.2
151.827 -7.2
151.8534 -7.2
151.8824 -7.2
151.9154 -7.2
151.9488 -7.2
151.9803 -7.2
152.0137 -7.2
152.0429 -7.2
152.0762 -7.2
152.1096 -7.2
152.1403 -7.2
152.1699 -7.2
152.2012 -7.2
152.2292 -7.2
152.2625 -7.2
152.2908 -7.2
152.3194 -7.2
152.3461 -7.2
152.3795 -7.2
152.4128 -7.2
152.4409 -7.2
152.47 -7.2
152.4995 -7.2
152.5289 -7.2
152.5622 -7.2
152.5913 -7.2
152.6216 -7.2
152.6531 -7.2
152.6856 -7.2
152.7189 -7.2
152.7508 -7.2
152.7841 -7.2
152.8175 -7.2
152.8451 -7.2
152.8784 -7.2
152.9069 -7.2
152.9403 -7.2
152.9678 -7.2
152.9975 -7.2
153.0308 -7.2
153.0589 -7.2
153.0855 -7.2
153.1149 -7.2
153.1462 -7.2
153.1796 -7.2
153.2093 -7.2
153.2426 -7.2
153.2756 -7.2
153.3055 -7.2
153.3388 -7.2
153.3676 -7.2
153.4009 -7.2
153.4305 -7.2
153.4588 -7.2
153.4922 -7.2
153.5217 -7.2
153.5495 -7.2
153.5763 -7.2
153.6056 -7.2
153.639 -7.2
153.6663 -7.2
153.6957 -7.2
153.7262 -7.2
153.7595 -7.2
153.7928 -7.2
153.8199 -7.2
153.8497 -7.2
153.8812 -7.2
153.9124 -7.2
153.9457 -7.2
153.9774 -7.2
154.0084 -7.2
154.0386 -7.2
154.0703 -7.2
154.1037 -7.2
154.1353 -7.2
154.1643 -7.2
154.1953 -7.2
154.2273 -7.2
154.2607 -7.2
154.2889 -7.2
154.3169 -7.2
154.3454 -7.2
154.3768 -7.2
154.4101 -7.2
154.4387 -7.2
154.472 -7.2
154.5021 -7.2
154.5301 -7.2
154.5634 -7.2
154.595 -7.2
154.6283 -7.2
154.6558 -7.2
154.6862 -7.2
154.7195 -7.2
154.7526 -7.2
154.7838 -7.2
154.8145 -7.2
154.8442 -7.2
154.8776 -7.2
154.9074 -7.2
154.9372 -7.2
154.9659 -7.2
154.9992 -7.2
155.0325 -7.2
155.0596 -7.2
155.0882 -7.2
155.1167 -7.2
155.1453 -7.2
155.1732 -7.2
155.2066 -7.2
155.2388 -7.2
155.2711 -7.2
155.3 -7.2
155.3306 -7.2
155.3639 -7.2
155.3931 -7.2
155.422 -7.2
155.4516 -7.2
155.4819 -7.2
155.5153 -7.2
155.5422 -7.2
155.5709 -7.2
155.6005 -7.2
155.629 -7.2
155.6623 -7.2
155.6947 -7.2
155.7259 -7.2
155.7572 -7.2
155.7888 -7.2
155.8221 -7.2
155.8525 -7.2
155.8816 -7.2
155.9086 -7.2
155.9407 -7.2
155.974 -7.2
156.0034 -7.2
156.0353 -7.2
156.0674 -7.2
156.0965 -7.2
156.1299 -7.2
156.1599 -7.2
156.1898 -7.2
156.2179 -7.2
156.2479 -7.2
156.2812 -7.2
156.3145 -7.2
156.3436 -7.2
156.3722 -7.2
156.4042 -7.2
156.4375 -7.2
156.4682 -7.2
156.4965 -7.2
156.5289 -7.2
156.5583 -7.2
156.5917 -7.2
156.6192 -7.2
156.6471 -7.2
156.6772 -7.2
156.7059 -7.2
156.7344 -7.2
156.7678 -7.2
156.8011 -7.2
156.8297 -7.2
156.863 -7.2
156.891 -7.2
156.9243 -7.2
156.9547 -7.2
156.9829 -7.2
157.0107 -7.2
157.0416 -7.2
157.075 -7.2
157.1027 -7.2
157.1317 -7.2
157.1651 -7.2
157.1947 -7.2
157.228 -7.2
157.2589 -7.2
157.2873 -7.2
157.3202 -7.2
157.3522 -7.2
157.385 -7.2
157.4141 -7.2
157.4474 -7.2
157.475 -7.2
157.5058 -7.2
157.5391 -7.2
157.5724 -7.2
157.6006 -7.2
157.6292 -7.2
157.6585 -7.2
157.6919 -7.2
157.7195 -7.2
157.752 -7.2
157.7814 -7.2
157.8136 -7.2
157.8469 -7.2
157.8777 -7.2
157.9081 -7.2
157.9408 -7.2
157.9696 -7.2
158.003 -7.2
158.036 -7.2
158.0657 -7.2
158.0937 -7.2
158.1224 -7.2
158.1557 -7.2
158.1886 -7.2
158.2168 -7.2
158.2502 -7.2
158.2835 -7.2
158.3168 -7.2
158.347 -7.2
158.3751 -7.2
158.4036 -7.2
158.4366 -7.2
158.4699 -7.2
158.4971 -7.2
158.5305 -7.2
158.5605 -7.2
158.5916 -7.2
158.6249 -7.2
158.6527 -7.2
158.6821 -7.2
158.7136 -7.2
158.741 -7.2
158.7743 -7.2
158.8076 -7.2
158.8392 -7.2
158.8665 -7.2
158.896 -7.2
158.9294 -7.2
158.9627 -7.2
158.9927 -7.2
159.026 -7.2
159.056 -7.2
159.0893 -7.2
159.1165 -7.2
159.1497 -7.2
159.1798 -7.2
159.2075 -7.2
159.2408 -7.2
159.2728 -7.2
159.3055 -7.2
159.3335 -7.2
159.3639 -7.2
159.3972 -7.2
159.4283 -7.2
159.4577 -7.2
159.4881 -7.2
159.5175 -7.2
159.5508 -7.2
159.5793 -7.2
159.6115 -7.2
159.6438 -7.2
159.6731 -7.2
159.7065 -7.2
159.7333 -7.2
159.7635 -7.2
159.7968 -7.2
159.8301 -7.2
159.8635 -7.2
159.8931 -7.2
159.9226 -7.2
159.951 -7.2
159.9786 -7.2
160.012 -7.2
160.0406 -7.2
160.0739 -7.2
160.1043 -7.2
160.1332 -7.2
160.1666 -7.2
160.1953 -7.2
160.2222 -7.2
160.2556 -7.2
160.2854 -7.2
160.3187 -7.2
160.3464 -7.2
160.3751 -7.2
160.4079 -7.2
160.4378 -7.2
160.4711 -7.2
160.5009 -7.2
160.5343 -7.2
160.5621 -7.2
160.5908 -7.2
160.6241 -7.2
160.6559 -7.2
160.6842 -7.2
160.7115 -7.2
160.7417 -7.2
160.775 -7.2
160.806 -7.2
160.8336 -7.2
160.8631 -7.2
160.8949 -7.2
160.9282 -7.2
160.9556 -7.2
160.9849 -7.2
161.0141 -7.2
161.045 -7.2
161.0784 -7.2
161.1075 -7.2
161.1376 -7.2
161.1676 -7.2
161.1965 -7.2
161.2298 -7.2
161.2623 -7.2
161.2933 -7.2
161.3244 -7.2
161.3577 -7.2
161.391 -7.2
161.4191 -7.2
161.4509 -7.2
161.4803 -7.2
161.5119 -7.2
161.5452 -7.2
161.5728 -7.2
161.6019 -7.2
161.6339 -7.6
161.6616 -7.6
161.695 -7.6
161.7283 -7.6
161.7572 -7.6
161.7855 -7.6
161.8144 -7.6
161.8477 -7.6
161.881 -7.6
161.9103 -7.6
161.9379 -7.6
161.9713 -7.6
162.0046 -7.6
162.0379 -7.6
162.0658 -7.6
162.0983 -7.6
162.1292 -7.4
162.1625 -6.95
162.1915 -6.95
162.2199 -6.3
162.2532 -5.85
162.2842 -5.85
162.3175 -5.45
162.3483 -5.45
162.3783 -5.2
162.4071 -5.2
162.437 -5.2
162.4704 -5.2
162.5025 -5.2
162.5359 -5.2
162.5667 -5.2
162.5993 -5.2
162.6327 -5.2
162.6644 -5.2
162.6925 -5.2
162.7211 -5.2
162.7505 -5.2
162.7838 -5.2
162.8133 -5.2
162.8439 -5.2
162.8772 -5.2
162.9046 -5.2
162.9379 -5.2
162.9688 -5.2
163.0022 -5.2
163.0306 -5.2
163.0584 -5.2
163.0917 -5.2
163.1251 -5.2
163.1572 -5.2
163.1852 -5.2
163.2174 -5.2
163.2507 -5.2
163.279 -5.2
163.3089 -5.2
163.3414 -5.2
163.3742 -5.2
163.4075 -5.2
163.4357 -5.2
163.4642 -5.2
163.494 -5.2
163.5231 -5.2
163.5564 -5.2
163.5897 -5.2
163.6231 -5.2
163.6514 -5.2
163.6786 -5.2
163.712 -5.2
163.7417 -5.2
163.7702 -5.2
163.8035 -5.2
163.8339 -5.2
163.8672 -5.2
163.898 -5.2
163.9257 -5.2
163.9591 -5.2
163.9885 -5.2
164.0219 -5.2
164.0515 -5.2
164.0814 -5.2
164.1106 -5.2
164.1389 -5.2
164.1723 -5.2
164.2056 -5.2
164.2341 -5.2
164.2622 -5.2
164.295 -5.2
164.3283 -5.2
164.3616 -5.2
164.3898 -5.2
164.4173 -5.2
164.4487 -5.2
164.482 -5.2
164.5145 -5.2
164.5427 -5.2
164.5753 -5.2
164.6086 -5.2
164.6419 -5.2
164.67 -5.2
164.7034 -5.2
164.7322 -5.2
164.7655 -5.2
164.7989 -5.2
164.8317 -5.2
164.8646 -5.2
164.8918 -5.2
164.9194 -5.2
164.9527 -5.2
164.986 -5.2
165.0142 -5.2
165.0415 -5.2
165.0735 -5.2
165.1069 -5.2
165.1357 -5.2
165.1631 -5.2
165.1926 -5.2
165.2246 -5.2
165.258 -5.2
165.2913 -5.2
165.322 -5.2
165.3508 -5.2
165.3824 -5
165.4145 -5
165.444 -5
165.4731 -5
165.5012 -5
165.5316 -5
165.565 -5
165.5983 -5
165.6279 -5
165.6565 -5
165.6856 -5
165.7154 -5
165.7488 -5
165.7769 -5
165.8102 -5
165.8412 -5
165.872 -5
165.9053 -5
165.9387 -5
165.9683 -5
166.0016 -5
166.0291 -5
166.0624 -5
166.0957 -5
166.1228 -5
166.1515 -5
166.1805 -5
166.2138 -5
166.246 -5
166.2757 -5
166.3051 -5
166.3356 -5
166.3689 -5
166.396 -5
166.4244 -5
166.4542 -5
166.4821 -5
166.5154 -5
166.5472 -5
166.5805 -5
166.612 -5
166.6414 -5
166.6747 -5
166.7062 -5
166.7343 -5
166.7625 -5
166.7958 -5
166.8291 -5
166.8584 -5
166.8848 -5
166.9167 -5
166.95 -5
166.9832 -5
167.0147 -5
167.0453 -5
167.0787 -5
167.1101 -5
167.1434 -5
167.1737 -5
167.2021 -5
167.23 -5
167.2594 -5
167.2927 -5
167.3237 -5
167.3526 -5
167.3793 -5
167.4127 -5
167.446 -5
167.4762 -5
167.5033 -5
167.5317 -5
167.5611 -5
167.5945 -5
167.6245 -5
167.655 -5
167.6844 -5
167.7178 -5
167.7511 -5
167.7829 -5
167.8131 -5
167.8417 -5
167.8687 -5
167.902 -5
167.9316 -5
167.9593 -5
167.9884 -5
168.0167 -5
168.05 -5
168.0821 -5
168.1105 -5
168.142 -5
168.1721 -5
168.2054 -5
168.2329 -5
168.2663 -5
168.2996 -5
168.3318 -5
168.3644 -5
168.3956 -5
168.4287 -5
168.4608 -5
168.487 -5
168.5203 -5
168.5502 -5
168.5823 -5
168.6104 -5
168.6413 -5
168.6747 -5
168.708 -5
168.7348 -5
168.7641 -5
168.7934 -5
168.8268 -5
168.8538 -5
168.8831 -5
168.9118 -5
168.9451 -5
168.9785 -5
169.0118 -5
169.0425 -5
169.0719 -5
169.1012 -5
169.1345 -5
169.1678 -5
169.1965 -5
169.2234 -5
169.2568 -5
169.2901 -5
169.3234 -5
169.3553 -5
169.3885 -5
169.4182 -5
169.4515 -5
169.4798 -5
169.5129 -5
169.5418 -5
169.5751 -5
169.6084 -5
169.6381 -5
169.6714 -5
169.7015 -5
169.7323 -5
169.7656 -5
169.7989 -5
169.8268 -5
169.857 -5
169.8868 -5
169.9201 -5
169.9491 -5
169.9775 -5
170.0102 -5
170.0423 -5
170.0757 -5
170.1029 -5
170.1362 -5
170.1669 -5
170.1959 -5
170.2292 -5
170.2626 -5
170.2924 -5
170.3258 -5
170.354 -5
170.3874 -5
170.4194 -5
170.4476 -5
170.4767 -5
170.51 -5
170.5434 -5
170.5762 -5
170.6043 -5
170.6347 -5
170.6678 -5
170.7011 -5
170.7287 -5
170.7621 -5
170.7954 -5
170.8287 -5
170.8621 -5
170.8939 -5
170.9247 -5
170.9574 -5
170.9876 -5
171.021 -5
171.0499 -5
171.0775 -4.35
171.1046 -4.35
171.1379 -1.5
171.1712 1.05
171.2006 1.05
171.2283 3.45
171.2577 4.8
171.2868 4.8
171.3202 4.8
171.3535 4.8
171.3848 4.35
171.4138 4.15
171.4471 4.15
171.4804 4.15
171.5122 4.55
171.5455 4.55
171.5789 5.45
171.6091 5.85
171.6425 5.85
171.6758 5.85
171.7077 5.65
171.7354 5.65
171.7682 5.45
171.8015 5
171.8347 5
171.8615 5
171.8927 5
171.9221 5.2
171.9555 5.2
171.9843 5.2
172.0132 5.2
172.0431 5.2
172.0739 5.2
172.1072 5.65
172.1406 7.6
172.1721 7.6
172.2048 9.15
172.2328 9.15
172.2661 10.7
172.295 10.7
172.3242 10.7
172.3566 10.7
172.3857 10.9
172.4191 10.9
172.4523 11.55
172.4825 11.55
172.5117 12.2
172.5405 12.45
172.5738 12.45
172.6034 12.45
172.633 11.75
172.6633 11.75
172.696 10.9
172.7293 10
172.7612 10
172.7917 9.8
172.8201 9.8
172.8477 9.8
172.881 9.8
172.9144 9.8
172.9422 9.8
172.9719 9.8
173.0053 9.8
173.0386 9.8
173.0673 9.8
173.0978 9.8
173.1277 9.8
173.1592 9.8
173.1925 9.8
173.2243 9.8
173.2573 9.8
173.2869 9.8
173.3173 9.8
173.3501 9.8
173.3792 9.8
173.4112 9.8
173.4422 9.8
173.4708 9.8
173.5041 9.8
173.5332 9.8
173.5655 9.8
173.5921 9.8
173.6224 9.8
173.6558 9.8
173.6859 9.8
173.7153 9.8
173.7479 9.8
173.7812 9.8
173.8145 9.8
173.8417 9.8
173.875 9.8
173.9043 9.8
173.9335 9.8
173.9669 9.8
173.9962 9.8
174.0256 9.8
174.0567 9.8
174.0851 9.8
174.1185 9.8
174.1504 9.8
174.1794 9.8
174.2078 9.8
174.2411 9.8
174.2744 9.8
174.3078 9.8
174.3411 9.8
174.3702 9.8
174.4001 9.8
174.4334 9.8
174.4606 9.8
174.4923 9.8
174.5213 9.8
174.55 9.8
174.5832 9.8
174.6165 9.8
174.6457 9.8
174.6744 9.8
174.7072 9.8
174.7405 9.8
174.7694 9.8
174.7996 9.8
174.8293 9.8
174.8626 9.8
174.8959 9.8
174.9251 9.8
174.9569 9.8
174.9902 9.8
175.019 9.8
175.0523 9.8
175.0796 9.8
175.1129 9.8
175.1461 9.8
175.1744 9.8
175.2077 9.8
175.2381 9.8
175.2665 9.8
175.2956 9.8
175.3259 9.8
175.3592 9.8
175.3925 9.8
175.4205 9.8
175.4474 9.8
175.4807 9.8
175.514 9.8
175.5416 9.8
175.5729 9.8
175.6028 9.8
175.6361 9.8
175.6694 9.8
175.698 9.8
175.7312 9.8
175.7603 9.8
175.79 9.8
175.8233 9.8
175.8542 9.8
175.8855 9.8
175.9137 9.8
175.9414 9.8
175.9747 9.8
176.005 9.8
176.0336 9.8
176.0611 9.8
176.09 9.8
176.1233 9.8
176.1519 9.8
176.1821 9.8
176.2155 9.8
176.2487 9.8
176.2821 9.8
176.3093 9.8
176.338 9.8
176.3708 9.8
176.4033 9.8
176.4366 9.8
176.4653 9.8
176.4979 9.8
176.53 9.8
176.5574 9.8
176.5907 9.8
176.6241 9.8
176.6548 9.8
176.6829 9.8
176.7122 9.8
176.7455 9.8
176.7788 9.8
176.809 9.8
176.8423 9.8
176.8735 9.8
176.9068 9.8
176.9354 9.8
176.9644 9.8
176.9977 9.8
177.0311 9.8
177.0644 9.8
177.0977 9.8
177.1269 9.8
177.1551 9.8
177.1837 9.8
177.217 9.8
177.2457 9.8
177.2739 9.8
177.3016 9.8
177.3341 9.8
177.3674 9.8
177.3978 9.8
177.4263 9.8
177.4577 9.8
177.4877 9.8
177.5211 9.8
177.5478 9.8
177.5765 9.8
177.6098 9.8
177.6431 9.8
177.6765 9.8
177.7081 9.8
177.7374 9.8
177.7661 9.8
177.7963 9.8
177.8296 9.8
177.8593 9.8
177.89 9.8
177.9186 9.8
177.952 9.8
177.9853 9.8
178.0134 9.8
178.046 9.8
178.0741 9.8
178.1039 9.8
178.1372 9.8
178.1641 9.8
178.1932 9.8
178.2224 9.8
178.2521 9.8
178.2854 9.8
178.3188 9.8
178.3479 9.8
178.3783 9.8
178.4116 9.8
178.4435 9.8
178.4769 9.8
178.5065 9.8
178.5376 9.8
178.5666 9.8
178.5962 9.8
178.6295 9.8
178.6592 9.8
178.6902 9.8
178.7197 9.8
178.7471 9.8
178.7804 9.8
178.8138 9.8
178.8425 9.8
178.8718 9.8
178.8993 9.8
178.9326 9.8
178.9623 9.8
178.9923 9.8
179.0231 9.8
179.0516 9.8
179.0849 9.8
179.1129 9.8
179.1442 9.8
179.1748 9.8
179.2045 9.8
179.2378 9.8
179.2647 9.8
179.298 9.8
179.3281 9.8
179.3609 9.8
179.3943 9.8
179.4247 9.8
179.4554 9.8
179.4833 9.8
179.5107 9.8
179.544 9.8
179.5736 9.8
179.6066 9.8
179.6355 9.8
179.6646 9.8
179.698 9.8
179.7284 9.8
179.7562 9.8
179.7869 9.8
179.8157 9.8
179.8491 9.8
179.8795 9.8
179.9092 9.8
179.9426 9.8
179.974 9.8
180.0073 9.8
180.0406 9.8
180.07 9.8
180.0986 9.8
180.127 9.8
180.1604 9.8
180.1897 9.8
180.223 9.8
180.2507 9.8
180.2796 9.8
180.3129 9.8
180.3414 9.8
180.3687 9.8
180.3972 9.8
180.4305 9.8
180.4639 9.8
180.4906 9.8
180.5226 9.8
180.5533 9.8
180.5867 9.8
180.62 9.8
180.6502 9.8
180.6836 9.8
180.7121 9.8
180.7417 9.8
180.775 9.8
180.8039 9.8
180.8344 9.8
180.8614 9.8
180.8922 9.8
180.9256 9.8
180.9589 9.8
180.9902 9.8
181.0223 9.8
181.0544 9.8
181.0877 9.8
181.1152 9.8
181.1441 9.8
181.1774 9.8
181.2107 9.8
181.2436 9.8
181.2726 9.8
181.3022 9.8
181.3328 9.8
181.3641 9.8
181.3974 9.8
181.4266 9.8
181.4593 9.8
181.4856 9.8
181.5153 9.8
181.5486 9.8
181.5803 9.8
181.6104 9.8
181.6404 9.8
181.67 9.8
181.7034 9.8
181.736 9.8
181.7694 9.8
181.7988 9.8
181.8322 9.8
181.8655 9.8
181.8964 9.8
181.9253 9.8
181.9548 9.8
181.9857 9.8
182.019 9.8
182.0524 9.8
182.0803 9.8
182.1099 9.8
182.1432 9.8
182.1766 9.8
182.2061 9.8
182.2335 9.8
182.2646 9.8
182.2979 9.8
182.3312 9.8
182.3646 9.8
182.3925 9.8
182.4259 9.8
182.4559 9.8
182.4892 9.8
182.5193 9.8
182.5484 9.8
182.5778 9.8
182.6111 9.8
182.6444 9.8
182.6727 9.8
182.7013 9.8
182.7323 9.8
182.7657 9.8
182.799 9.8
182.8286 9.8
182.859 9.8
182.8918 9.8
182.9211 9.8
182.9544 9.8
182.9878 9.8
183.0182 9.8
183.0459 9.8
183.0793 9.8
183.1126 9.8
183.1423 9.8
183.1721 9.8
183.2005 9.8
183.2291 9.8
183.2624 9.8
183.2908 9.8
183.3189 9.8
183.3493 9.8
183.3796 9.8
183.4129 9.8
183.4409 9.8
183.4708 9.8
183.504 9.8
183.5332 9.8
183.5665 9.8
183.5935 9.8
183.6227 9.8
183.652 9.8
183.6799 9.8
183.7089 9.8
183.7422 9.8
183.7756 9.8
183.8089 9.8
183.8368 9.8
183.8668 9.8
183.9001 9.8
183.9304 9.8
183.9584 9.8
183.987 9.8
184.0166 9.8
184.05 9.8
184.0791 9.8
184.1125 9.8
184.1458 9.8
184.1744 9.8
184.2078 9.8
184.2411 9.8
184.2715 9.8
184.3019 9.8
184.3302 9.8
184.3635 9.8
184.3969 9.8
184.4241 9.8
184.4516 9.8
184.4823 9.8
184.5156 9.8
184.5465 9.8
184.5759 9.8
184.6062 9.8
184.6382 9.8
184.6715 9.8
184.7029 9.8
184.7363 9.8
184.7651 9.8
184.7937 9.8
184.8264 9.8
184.8553 9.8
184.8844 9.8
184.913 9.8
184.9463 9.8
184.9796 9.8
185.0118 9.8
185.0414 9.8
185.0724 9.8
185.1058 9.8
185.1391 9.8
185.1675 9.8
185.1994 9.8
185.2306 9.8
185.2639 9.8
185.2972 9.8
185.3236 9.8
185.3535 9.8
185.3838 9.8
185.4159 9.8
185.4492 9.8
185.4777 9.8
185.5105 9.8
185.5384 9.8
185.5688 9.8
185.6022 9.8
185.6323 9.8
185.6625 9.8
185.6907 9.8
185.7202 9.8
185.7536 9.8
185.7869 9.8
185.8159 9.8
185.8492 9.8
185.8791 9.8
185.9124 9.8
185.9437 9.8
185.9758 9.8
186.005 9.8
186.0381 9.8
186.0714 9.8
186.1037 9.8
186.1344 9.8
186.1645 9.8
186.1933 9.8
186.2267 9.8
186.26 9.8
186.2927 9.8
186.3206 9.8
186.3497 9.8
186.3831 9.8
186.4113 9.8
186.4437 9.8
186.4771 9.8
186.5069 9.8
186.5402 9.8
186.5674 9.8
186.5958 9.8
186.6248 9.8
186.6581 9.8
186.6902 9.8
186.7192 9.8
186.7484 9.8
186.7801 9.8
186.8081 9.8
186.8414 9.8
186.8714 9.8
186.9021 9.8
186.9343 9.8
186.9676 9.8
187.0009 9.8
187.0314 9.8
187.0597 9.8
187.0894 9.8
187.1189 9.8
187.1522 9.8
187.1794 9.8
187.2128 9.8
187.2423 9.8
187.2714 9.8
187.3047 9.8
187.334 9.8
187.3631 9.8
187.3909 9.8
187.4243 9.8
187.4576 9.8
187.4884 9.8
187.52 9.8
187.5475 9.8
187.576 9.8
187.6094 9.8
187.6381 9.8
187.6677 9.8
187.6993 9.8
187.7291 9.8
187.7625 9.8
187.7898 9.8
187.8221 9.8
187.8519 9.8
187.8834 9.8
187.9167 9.8
187.9464 9.8
187.9783 9.8
188.0063 9.8
188.0374 9.8
188.0708 9.8
188.1012 9.8
188.1298 9.8
188.1571 9.8
188.1887 9.8
188.222 9.8
188.2504 9.8
188.2837 9.8
188.3139 9.8
188.3452 9.8
188.3786 9.8
188.406 9.8
188.4381 9.8
188.4676 9.8
188.4985 9.8
188.5319 9.8
188.5652 9.8
188.5985 9.8
188.6263 9.8
188.6561 9.8
188.6894 9.8
188.7182 9.8
188.7486 9.8
188.7748 9.8
188.8051 9.8
188.8384 9.8
188.8689 9.8
188.8997 9.8
188.9298 9.8
188.9631 9.8
188.9964 9.8
189.0235 9.8
189.0523 9.8
189.0856 9.8
189.1141 9.8
189.1474 9.8
189.1763 9.8
189.2075 9.8
189.2361 9.8
189.2652 9.8
189.2986 9.8
189.3273 9.8
189.3548 9.8
189.3824 9.8
189.4129 9.8
189.4462 9.8
189.4776 9.8
189.5065 9.8
189.5364 9.8
189.5695 9.8
189.6029 9.8
189.6352 9.8
189.6668 9.8
189.6957 9.8
189.7251 9.8
189.7581 9.8
189.7882 9.8
189.8215 9.8
189.8549 9.8
189.8832 9.8
189.9165 9.8
189.9467 9.8
189.9755 9.8
190.0088 9.8
190.0422 9.8
190.0755 9.8
190.1088 9.8
190.1358 9.8
190.1658 9.8
190.197 9.8
190.2303 9.8
190.2578 9.8
190.2871 9.8
190.3204 9.8
190.3483 9.8
190.3817 9.8
190.415 9.8
190.4462 9.8
190.4795 9.8
190.5121 9.8
190.5454 9.8
190.5744 9.8
190.6034 9.8
190.6308 9.8
190.6622 9.8
190.6955 9.8
190.7289 9.8
190.758 9.8
190.7906 9.8
190.822 9.8
190.8553 9.8
190.8884 9.8
190.918 9.8
190.9489 9.8
190.9769 9.8
191.0102 9.8
191.0436 9.8
191.0746 9.8
191.1079 9.8
191.1413 9.8
191.1746 9.8
191.2058 9.8
191.2378 9.8
191.2652 9.8
191.2952 9.8
191.3285 9.8
191.3618 9.8
191.3937 9.8
191.4231 9.8
191.453 9.8
191.4862 9.8
191.513 9.8
191.5438 9.8
191.5751 9.8
191.6036 9.8
191.6369 9.8
191.6703 9.8
191.6991 9.8
191.7283 9.8
191.7616 9.8
191.7949 9.8
191.8242 9.8
191.8575 9.8
191.8846 9.8
191.9179 9.8
191.9513 9.8
191.9828 9.8
192.0118 9.8
192.0451 9.8
192.0784 9.8
192.1118 9.8
192.1391 9.8
192.1688 9.8
192.2021 9.8
192.2297 9.8
192.263 9.8
192.2925 9.8
192.3259 9.8
192.3592 9.8
192.3898 9.8
192.4231 9.8
192.4527 9.8
192.4817 9.8
192.5098 9.8
192.5431 9.8
192.5764 9.8
192.6048 9.8
192.6331 9.8
192.6619 9.8
192.6945 9.8
192.7274 9.8
192.756 9.8
192.7893 9.8
192.8189 9.8
192.8492 9.8
192.8825 9.8
192.9158 9.8
192.9467 9.8
192.9796 9.8
193.0096 9.8
193.0429 9.8
193.0717 9.8
193.1015 9.8
193.1295 9.8
193.1599 9.8
193.1932 9.8
193.2221 9.8
193.2496 9.8
193.2829 9.8
193.3123 9.8
193.3456 9.8
193.3731 9.8
193.4024 9.8
193.4333 9.8
193.4667 9.8
193.4997 9.8
193.5308 9.8
193.5635 9.8
193.5965 9.8
193.6256 9.8
193.6589 9.8
193.6876 9.8
193.7203 9.8
193.7475 9.8
193.7768 9.8
193.8101 9.8
193.8405 9.8
193.8738 9.8
193.9029 9.8
193.933 9.8
193.9663 9.8
193.9988 9.8
194.0279 9.8
194.0572 9.8
194.0906 9.8
194.1238 9.8
194.1531 9.8
194.1815 9.8
194.2147 9.8
194.2461 9.8
194.2794 9.8
194.3127 9.8
194.3402 9.8
194.3699 9.8
194.4012 9.8
194.4345 9.8
194.4662 9.8
194.4961 9.8
194.5266 9.8
194.5599 9.8
194.5933 9.8
194.6231 9.8
194.6548 9.8
194.6881 9.8
194.7168 9.8
194.7501 9.8
194.7834 9.8
194.813 9.8
194.8415 9.8
194.8699 9.8
194.9032 9.8
194.9365 9.8
194.9658 9.8
194.996 9.8
195.0293 9.8
195.0627 9.8
195.0898 9.8
195.1177 9.8
195.1505 9.8
195.1838 9.8
195.2171 9.8
195.2462 9.8
195.2795 9.8
195.3092 9.8
195.3396 9.8
195.3729 9.8
195.4063 9.8
195.4367 9.8
195.4662 9.8
195.4959 9.8
195.5292 9.8
195.5613 9.8
195.5896 9.8
195.623 9.8
195.6538 9.8
195.6871 9.8
195.7177 9.8
195.7455 9.8
195.7766 9.8
195.8099 9.8
195.8432 9.8
195.8766 9.8
195.9099 9.8
195.9386 9.8
195.9685 9.8
196.0018 9.8
196.0317 9.8
196.0647 9.8
196.0942 9.8
196.1241 9.8
196.1574 9.8
196.1886 9.8
196.2202 9.8
196.2474 9.8
196.277 9.8
196.3103 9.8
196.338 9.8
196.3653 9.8
196.3986 9.8
196.4289 9.8
196.4623 9.8
196.4894 9.8
196.5181 9.8
196.5493 9.8
196.5778 9.8
196.611 9.8
196.6443 9.8
196.6759 9.8
196.7053 9.8
196.7351 9.8
196.7685 9.8
196.7989 9.8
196.8273 9.8
196.8544 9.8
196.8833 9.8
196.9167 9.8
196.95 9.8
196.9762 9.8
197.0071 9.8
197.0383 9.8
197.0716 9.8
197.0996 9.8
197.1302 9.8
197.1615 9.8
197.1948 9.8
197.2281 9.8
197.2574 9.8
197.2861 9.8
197.3162 9.8
197.343 9.8
197.3721 9.8
197.4054 9.8
197.4372 9.8
197.4643 9.8
197.4927 9.8
197.5231 9.8
197.5564 9.8
197.5897 9.8
197.6198 9.8
197.6531 9.8
197.683 9.8
197.7163 9.8
197.7485 9.8
197.7791 9.8
197.8118 9.8
197.8452 9.8
197.8785 9.8
197.9084 9.8
197.936 9.8
197.9653 9.8
197.9959 9.8
198.0292 9.8
198.0581 9.8
198.0854 9.8
198.1183 9.8
198.1481 9.8
198.1815 9.8
198.2148 9.8
198.2442 9.8
198.2732 9.8
198.3046 9.8
198.3379 9.8
198.3712 9.8
198.4001 9.8
198.4308 9.8
198.4585 9.8
198.4918 9.8
198.5244 9.8
198.5555 9.8
198.5888 9.8
198.6206 9.8
198.6539 9.8
198.6827 9.8
198.7111 9.8
198.7418 9.8
198.7737 9.8
198.807 9.8
198.8391 9.8
198.8678 9.8
198.8991 9.8
198.9283 9.8
198.9616 9.8
198.9948 9.8
199.0239 9.8
199.0515 9.8
199.0793 9.8
199.1126 9.8
199.1417 9.8
199.1723 9.8
199.1998 9.8
199.2294 9.8
199.2628 9.8
199.2959 9.8
199.3293 9.8
199.3626 9.8
199.3919 9.8
199.4252 9.8
199.4541 9.8
199.4842 9.8
199.5135 9.8
199.5429 9.8
199.5762 9.8
199.6096 9.8
199.6398 9.8
199.6688 9.8
199.701 9.8
199.7343 9.8
199.7676 9.8
199.7949 9.8
199.8233 9.8
199.8529 9.8
199.8862 9.8
199.9177 9.8
199.9449 9.8
199.9755 9.8
200.0046 9.8
200.0379 9.8
200.0688 9.8
200.0981 9.8
200.131 9.8
200.1618 9.8
200.1951 9.8
200.2248 9.8
200.2563 9.8
200.2877 9.8
200.3169 9.8
200.3502 9.8
200.3835 9.8
200.4113 9.8
200.4434 9.8
200.4749 9.8
200.5082 9.8
200.5415 9.8
200.5707 9.8
200.6028 9.8
200.6361 9.8
200.6694 9.8
200.6969 9.8
200.726 9.8
200.7555 9.8
200.786 9.8
200.8194 9.8
200.8521 9.8
200.8829 9.8
200.9146 9.8
200.945 9.8
200.9783 9.8
201.0068 9.8
201.0355 9.8
201.0624 9.8
201.0919 9.8
201.1252 9.8
201.154 9.8
201.1839 9.8
201.2173 9.8
201.2484 9.8
201.2817 9.8
201.3112 9.8
201.3404 9.8
201.3715 9.8
201.4016 9.8
201.4349 9.8
201.4666 9.8
201.5 9.8
201.5332 9.8
201.566 9.8
201.5993 9.8
201.6288 9.8
201.6588 9.8
201.6873 9.8
201.7171 9.8
201.7505 9.8
201.7782 9.8
201.8096 9.8
201.8417 9.8
201.8746 9.8
201.908 9.8
201.9395 9.8
201.9683 9.8
201.9982 9.8
202.0271 9.8
202.0604 9.8
202.0938 9.8
202.1252 9.8
202.1577 9.8
202.1898 9.8
202.2231 9.8
202.2538 9.8
202.2872 9.8
202.3203 9.8
202.3536 9.8
202.3869 9.8
202.4203 9.8
202.453 9.8
202.4864 9.8
202.5158 9.8
202.5491 9.8
202.58 9.8
202.6133 9.8
202.646 9.8
202.6759 9.8
202.7092 9.8
202.7387 9.8
202.7677 9.8
202.7961 9.8
202.8244 9.8
202.8556 9.8
202.889 9.8
202.9223 9.8
202.9501 9.8
202.9792 9.8
203.0085 9.8
203.0418 9.8
203.0694 9.8
203.1014 9.8
203.1336 9.8
203.1644 9.8
203.1978 9.8
203.2276 9.8
203.261 9.8
203.2929 9.8
203.3203 9.8
203.3536 9.8
203.3819 9.8
203.4113 9.8
203.4397 9.8
203.4715 9.8
203.5049 9.8
203.5382 9.8
203.57 9.8
203.6004 9.8
203.6329 9.8
203.6663 9.8
203.6964 9.8
203.728 9.8
203.759 9.8
203.7898 9.8
203.8232 9.8
203.8565 9.8
203.8898 9.8
203.919 9.8
203.9457 9.8
203.979 9.8
204.0093 9.8
204.0371 9.8
204.0704 9.8
204.1002 9.8
204.1335 9.8
204.1625 9.8
204.1899 9.8
204.2205 9.8
204.251 9.8
204.2844 9.8
204.3119 9.8
204.3408 9.8
204.3696 9.8
204.3998 9.8
204.4331 9.8
204.4635 9.8
204.4949 9.8
204.5235 9.8
204.552 9.8
204.5854 9.8
204.6147 9.8
204.6448 9.8
204.6762 9.8
204.7096 9.8
204.7429 9.8
204.7705 9.8
204.7972 9.8
204.8261 9.8
204.8564 9.8
204.8898 9.8
204.9218 9.8
204.9551 9.8
204.9884 9.8
205.019 9.8
205.0523 9.8
205.0856 9.8
205.1148 9.8
205.1437 9.8
205.1707 9.8
205.204 9.8
205.2333 9.8
205.2606 9.8
205.2881 9.8
205.3181 9.8
205.3476 9.8
205.3809 9.8
205.4142 9.8
205.4476 9.8
205.4771 9.8
205.5105 9.8
205.5438 9.8
205.573 9.8
205.6019 9.8
205.6309 9.8
205.6589 9.8
205.6922 9.8
205.7207 9.8
205.7481 9.8
205.7784 9.8
205.8077 9.8
205.841 9.8
205.8727 9.8
205.9002 9.8
205.9329 9.8
205.9662 9.8
205.9996 9.8
206.0288 9.8
206.0579 9.8
206.0888 9.8
206.1221 9.8
206.1554 9.8
206.1888 9.8
206.2188 9.8
206.2471 9.8
206.2754 9.8
206.3087 9.8
206.3381 9.8
206.3714 9.8
206.3978 9.8
206.4272 9.8
206.4605 9.8
206.4922 9.8
206.523 9.8
206.5535 9.8
206.5868 9.8
206.6201 9.8
206.6481 9.8
206.6815 9.8
206.7148 9.8
206.7426 9.8
206.7752 9.8
206.8038 9.8
206.8322 9.8
206.8643 9.8
206.8952 9.8
206.9286 9.8
206.9584 9.8
206.9892 9.8
207.0195 9.8
207.0506 9.8
207.084 9.8
207.114 9.8
207.1451 9.8
207.1785 9.8
207.2065 9.8
207.2399 9.8
207.2697 9.8
207.2987 9.8
207.3273 9.8
207.3543 9.8
207.3817 9.8
207.4151 9.8
207.4439 9.8
207.4744 9.8
207.5063 9.8
207.5362 9.8
207.5695 9.8
207.5988 9.8
207.6268 9.8
207.6555 9.8
207.686 9.8
207.7194 9.8
207.7504 9.8
207.7801 9.8
207.8092 9.8
207.8397 9.8
207.873 9.8
207.9031 9.8
207.9364 9.8
207.966 9.8
207.9945 9.8
208.0279 9.8
208.0612 9.8
208.0906 9.8
208.119 9.8
208.1483 9.8
208.1816 9.8
208.2107 9.8
208.2379 9.8
208.2673 9.8
208.2963 9.8
208.3296 9.8
208.3615 9.8
208.3948 9.8
208.4276 9.8
208.4557 9.8
208.4891 9.8
208.5185 9.8
208.5502 9.8
208.5785 9.8
208.6118 9.8
208.6451 9.8
208.6741 9.8
208.7063 9.8
208.7327 9.8
208.7625 9.8
208.7958 9.8
208.8239 9.8
208.8509 9.8
208.8841 9.8
208.9175 9.8
208.9508 9.8
208.9818 9.8
209.0105 9.8
209.0402 9.8
209.0688 9.8
209.1021 9.8
209.134 9.8
209.1667 9.8
209.2 9.8
209.2278 9.8
209.2612 9.8
209.2914 9.8
209.3207 9.8
209.348 9.8
209.3804 9.8
209.4138 9.8
209.4429 9.8
209.4748 9.8
209.5051 9.8
209.5375 9.8
209.5708 9.8
209.5995 9.8
209.6283 9.8
209.6579 9.8
209.686 9.8
209.7193 9.8
209.7478 9.8
209.778 9.8
209.8113 9.8
209.8382 9.8
209.8715 9.8
209.9002 9.8
209.9317 9.8
209.9591 9.8
209.9884 9.8
210.0218 9.8
210.0533 9.8
210.0805 9.8
210.1138 9.8
210.1426 9.8
210.1759 9.8
210.2055 9.8
210.2388 9.8
210.2722 9.8
210.3049 9.8
210.3382 9.8
210.3687 9.8
210.4013 9.8
210.4301 9.8
210.4576 9.8
210.4909 9.8
210.5211 9.8
210.5486 9.8
210.5788 9.8
210.6085 9.8
210.6418 9.8
210.6744 9.8
210.7056 9.8
210.7368 9.8
210.768 9.8
210.8013 9.8
210.8291 9.8
210.8579 9.8
210.8913 9.8
210.921 9.8
210.9543 9.8
210.9856 9.8
211.0161 9.8
211.047 9.8
211.0751 9.8
211.1084 9.8
211.1376 9.8
211.1707 9.8
211.1983 9.8
211.2316 9.8
211.2649 9.8
211.2925 9.8
211.3196 9.8
211.3504 9.8
211.3813 9.8
211.4147 9.8
211.4461 9.8
211.477 9.8
211.5066 9.8
211.5353 9.8
211.5686 9.8
211.5986 9.8
211.6311 9.8
211.6623 9.8
211.6905 9.8
211.7239 9.8
211.7572 9.8
211.7905 9.8
211.8181 9.8
211.8474 9.8
211.8807 9.8
211.9107 9.8
211.9422 9.8
211.9714 9.8
212.0047 9.8
212.038 9.8
212.0661 9.8
212.0954 9.8
212.1285 9.8
212.1619 9.8
212.1952 9.8
212.2269 9.8
212.2602 9.8
212.2917 9.8
212.3214 9.8
212.3547 9.8
212.3857 9.8
212.4145 9.8
212.4418 9.8
212.471 9.8
212.5043 9.8
212.5376 9.8
212.571 9.8
212.5996 9.8
212.629 9.8
212.6623 9.8
212.6908 9.8
212.7213 9.8
212.7505 9.8
212.7798 9.8
212.8131 9.8
212.8424 9.8
212.8734 9.8
212.9067 9.8
212.9361 9.8
212.9695 9.8
212.9994 9.8
213.0275 9.8
213.0542 9.8
213.0827 9.8
213.1161 9.8
213.1466 9.8
213.1756 9.8
213.2056 9.8
213.2389 9.8
213.2723 9.8
213.3023 9.8
213.3323 9.8
213.3656 9.8
213.3955 9.8
213.4288 9.8
213.4578 9.8
213.4911 9.8
213.5187 9.8
213.5515 9.8
213.5849 9.8
213.6137 9.8
213.6438 9.8
213.6728 9.8
213.7058 9.8
213.7392 9.8
213.7725 9.8
213.8035 9.8
213.8369 9.8
213.8663 9.8
213.8997 9.8
213.9298 9.8
213.9631 9.8
213.9904 9.8
214.0177 9.8
214.0511 9.8
214.0831 9.8
214.1122 9.8
214.1443 9.8
214.1716 9.8
214.2049 9.8
214.2382 9.8
214.2716 9.8
214.3049 9.8
214.3362 9.8
214.3696 9.8
214.4007 9.8
214.4292 9.8
214.4581 9.8
214.4897 9.8
214.523 9.8
214.5504 9.8
214.5824 9.8
214.6158 9.8
214.6491 9.8
214.6824 9.8
214.7114 9.8
214.7448 9.8
214.7714 9.8
214.7994 9.8
214.8327 9.8
214.8657 9.8
214.8973 9.8
214.9285 9.8
214.9617 9.8
214.995 9.8
215.0241 9.8
215.0561 9.8
215.087 9.8
215.1174 9.8
215.1507 9.8
215.1781 9.8
215.2076 9.8
215.2409 9.8
215.2693 9.8
215.3026 9.8
215.3338 9.8
215.362 9.8
215.3899 9.8
215.42 9.8
215.4533 9.8
215.4849 9.8
215.5163 9.8
215.5445 9.8
215.5777 9.8
215.6111 9.8
215.6411 9.8
215.6711 9.8
215.7013 9.8
215.7342 9.8
215.7675 9.8
215.7999 9.8
215.8287 9.8
215.862 9.8
215.8949 9.8
215.9275 9.8
215.9569 9.8
215.9901 9.8
216.0235 9.8
216.0555 9.8
216.0889 9.8
216.1222 9.8
216.1552 9.8
216.1817 9.8
216.2111 9.8
216.2444 9.8
216.2739 9.8
216.3031 9.8
216.3317 9.8
216.3631 9.8
216.3965 9.8
216.4298 9.8
216.4615 9.8
216.4908 9.8
216.5186 9.8
216.552 9.8
216.5823 9.8
216.6113 9.8
216.6426 9.8
216.6702 9.8
216.7035 9.8
216.7365 9.8
216.7668 9.8
216.7966 9.8
216.8299 9.8
216.8632 9.8
216.8926 9.8
216.9214 9.8
216.9515 9.8
216.9821 9.8
217.0154 9.8
217.0466 9.8
217.0764 9.8
217.1052 9.8
217.1349 9.8
217.1682 9.8
217.1992 9.8
217.2278 9.8
217.2611 9.8
217.2926 9.8
217.3259 9.8
217.3571 9.8
217.3856 9.8
217.414 9.8
217.4474 9.8
217.4807 9.8
217.5082 9.8
217.5357 9.8
217.5653 9.8
217.596 9.8
217.6294 9.8
217.66 9.8
217.6911 9.8
217.7218 9.8
217.7527 9.8
217.7861 9.8
217.8178 9.8
217.8487 9.8
217.8821 9.8
217.9094 9.8
217.9428 9.8
217.9721 9.8
218.0052 9.8
218.0328 9.8
218.0661 9.8
218.0994 9.8
218.1278 9.8
218.1552 9.8
218.1854 9.8
218.215 9.8
218.2483 9.8
218.2763 9.8
218.3096 9.8
218.3411 9.8
218.3744 9.8
218.4078 9.8
218.4411 9.8
218.4734 9.8
218.504 9.8
218.5349 9.8
218.5682 9.8
218.5985 9.8
218.6283 9.8
218.6561 9.8
218.6893 9.8
218.7226 9.8
218.751 9.8
218.7796 9.8
218.8104 9.8
218.8434 9.8
218.8762 9.8
218.9095 9.8
218.9374 9.8
218.9678 9.8
219.0002 9.8
219.0336 9.8
219.0638 9.8
219.0971 9.8
219.1255 9.8
219.1532 9.8
219.1866 9.8
219.2166 9.8
219.2451 9.8
219.2722 9.8
219.3024 9.8
219.3357 9.8
219.3691 9.8
219.4024 9.8
219.4357 9.8
219.4656 9.8
219.4989 9.8
219.5278 9.8
219.5568 9.8
219.5876 9.8
219.6175 9.8
219.6509 9.8
219.6838 9.8
219.7134 9.8
219.7411 9.8
219.7684 9.8
219.8018 9.8
219.834 9.8
219.8617 9.8
219.8901 9.8
219.9192 9.8
219.9525 9.8
219.9821 9.8
220.0103 9.8
220.0404 9.8
220.0698 9.8
220.1032 9.8
220.1334 9.8
220.1667 9.8
220.1956 9.8
220.2239 9.8
220.2572 9.8
220.286 9.8
220.3188 9.8
220.3497 9.8
220.3802 9.8
220.4136 9.8
220.4469 9.8
220.4754 9.8
220.5017 9.8
220.5351 9.8
220.5684 9.8
220.5961 9.8
220.6231 9.8
220.6564 9.8
220.6895 9.8
220.7229 9.8
220.7533 9.8
220.7821 9.8
220.8113 9.8
220.8388 9.8
220.8721 9.8
220.9041 9.8
220.9351 9.8
220.9685 9.8
221.0018 9.8
221.0351 9.8
221.064 9.8
221.0919 9.8
221.1202 9.8
221.1505 9.8
221.1839 9.8
221.2124 9.8
221.2436 9.8
221.2756 9.8
221.3069 9.8
221.3403 9.8
221.3705 9.8
221.3998 9.8
221.4282 9.8
221.4602 9.8
221.4935 9.8
221.5269 9.8
221.5602 9.8
221.5888 9.8
221.6194 9.8
221.6527 9.8
221.685 9.8
221.7133 9.8
221.7417 9.8
221.7703 9.8
221.8036 9.8
221.8318 9.8
221.8619 9.8
221.8937 9.8
221.927 9.8
221.9603 9.8
221.9889 9.8
222.019 9.8
222.0517 9.8
222.0814 9.8
222.1147 9.8
222.1441 9.8
222.1775 9.8
222.2108 9.8
222.2393 9.8
222.2726 9.8
222.3014 9.8
222.3329 9.8
222.3657 9.8
222.3988 9.8
222.4321 9.8
222.4631 9.8
222.492 9.8
222.5253 9.8
222.5587 9.8
222.592 9.8
222.6221 9.8
222.655 9.8
222.6868 9.8
222.7176 9.8
222.7509 9.8
222.7795 9.8
222.8091 9.8
222.8377 9.8
222.8692 9.8
222.9026 9.8
222.9359 9.8
222.964 9.8
222.9951 9.8
223.0249 9.8
223.0583 9.8
223.0889 9.8
223.1184 9.8
223.1517 9.8
223.1828 9.8
223.2161 9.8
223.2437 9.8
223.2727 9.8
223.3009 9.8
223.3286 9.8
223.3587 9.8
223.392 9.8
223.4209 9.8
223.4487 9.8
223.4764 9.8
223.5072 9.8
223.5378 9.8
223.5712 9.8
223.5982 9.8
223.6315 9.8
223.6601 9.8
223.6919 9.8
223.7252 9.8
223.7541 9.8
223.7861 9.8
223.8154 9.8
223.8471 9.8
223.8804 9.8
223.9102 9.8
223.9407 9.8
223.9673 9.8
224.0006 9.8
224.034 9.8
224.0632 9.8
224.0901 9.8
224.1215 9.8
224.1517 9.8
224.185 9.8
224.2184 9.8
224.2468 9.8
224.2752 9.8
224.3047 9.8
224.338 9.8
224.3671 9.8
224.3976 9.8
224.4258 9.8
224.4519 9.8
224.4852 9.8
224.516 9.8
224.5432 9.8
224.5703 9.8
224.6001 9.8
224.6331 9.8
224.6664 9.8
224.6957 9.8
224.7291 9.8
224.7624 9.8
224.7905 9.8
224.8238 9.8
224.8536 9.8
224.8869 9.8
224.9157 9.8
224.9436 9.8
224.9769 9.8
225.0061 9.8
225.0338 9.8
225.0629 9.8
225.0961 9.8
225.1295 9.8
225.1581 9.8
225.1853 9.8
225.2187 9.8
225.2478 9.8
225.2812 9.8
225.3118 9.8
225.3451 9.8
225.3783 9.8
225.4088 9.8
225.4421 9.8
225.4715 9.8
225.5043 9.8
225.5328 9.8
225.5598 9.8
225.5931 9.8
225.6221 9.8
225.6507 9.8
225.6841 9.8
225.7131 9.8
225.7464 9.8
225.7759 9.8
225.8093 9.8
225.8376 9.8
225.8679 9.8
225.9012 9.8
225.9319 9.8
225.9613 9.8
225.9898 9.8
226.0187 9.8
226.052 9.8
226.0845 9.8
226.1175 9.8
226.1458 9.8
226.1741 9.8
226.2074 9.8
226.237 9.8
226.2691 9.8
226.296 9.8
226.3249 9.8
226.3582 9.8
226.3892 9.8
226.4158 9.8
226.4442 9.8
226.4747 9.8
226.5081 9.8
226.5386 9.8
226.5685 9.8
226.5986 9.8
226.6272 9.8
226.6605 9.8
226.6924 9.8
226.7243 9.8
226.7547 9.8
226.7836 9.8
226.8169 9.8
226.8503 9.8
226.8823 9.8
226.9127 9.8
226.946 9.8
226.9794 9.8
227.0086 9.8
227.038 9.8
227.0668 9.8
227.0951 9.8
227.1284 9.8
227.1603 9.8
227.189 9.8
227.2174 9.8
227.2475 9.8
227.2808 9.8
227.313 9.8
227.3434 9.8
227.3707 9.8
227.4038 9.8
227.4372 9.8
227.4705 9.8
227.4983 9.8
227.5312 9.8
227.5596 9.8
227.593 9.8
227.6263 9.8
227.6542 9.8
227.6839 9.8
227.7172 9.8
227.7505 9.8
227.7791 9.8
227.8085 9.8
227.8378 9.8
227.8689 9.8
227.9022 9.8
227.9323 9.8
227.9612 9.8
227.9945 9.8
228.0242 9.8
228.0576 9.8
228.0857 9.8
228.1149 9.8
228.1426 9.8
228.176 10
228.2093 10
228.2393 10.45
228.2722 11.1
228.3026 11.1
228.336 11.35
228.3693 11.35
228.3999 11.35
228.4333 11.35
228.4666 11.35
228.4962 11.35
228.5293 11.35
228.5627 11.35
228.5922 11.35
228.6255 10.9
228.656 10.7
228.6894 10.7
228.7194 10.25
228.7479 10.25
228.7782 9.8
228.8085 9.6
228.8418 9.6
228.8741 9.6
228.9032 9.6
228.9323 9.6
228.9648 9.6
228.9982 9.6
229.0256 9.6
229.0589 9.6
229.0923 9.6
229.1216 9.6
229.155 9.6
229.1883 9.6
229.2182 9.6
229.2475 9.6
229.2769 9.6
229.3102 9.6
229.3393 9.6
229.3692 9.6
229.3981 9.6
229.4279 9.6
229.4613 9.6
229.4918 9.6
229.5247 9.6
229.5572 9.6
229.5886 9.6
229.622 9.6
229.6541 9.6
229.686 9.6
229.7159 9.6
229.7439 9.6
229.7772 9.6
229.8105 9.6
229.8407 9.6
229.8738 9.6
229.9031 9.6
229.9365 9.6
229.9662 9.6
229.9979 9.6
230.0249 9.6
230.0553 9.6
230.0886 9.6
230.116 9.6
230.1429 9.6
230.174 9.6
230.2038 9.6
230.2372 9.6
230.2679 9.6
230.3012 9.6
230.3331 9.6
230.3652 9.6
230.3985 9.6
230.4294 9.6
230.4585 9.6
230.4874 9.6
230.5146 9.6
230.548 9.6
230.5813 9.6
230.6096 9.6
230.638 9.6
230.6683 9.6
230.7017 9.6
230.7307 9.6
230.7579 9.8
230.788 9.8
230.8199 9.8
230.8533 9.8
230.8866 9.8
230.9157 9.8
230.9452 9.8
230.9785 9.8
231.0118 9.8
231.0418 9.8
231.071 9.8
231.1044 9.8
231.133 9.8
231.1664 9.8
231.1975 9.8
231.2308 9.8
231.2574 9.8
231.2887 9.8
231.322 9.8
231.35 9.8
231.378 9.8
231.4096 9.8
231.4429 9.8
231.4762 9.8
231.5059 9.8
231.5363 9.8
231.5675 9.8
231.5963 9.8
231.6296 9.8
231.6592 9.8
231.6898 9.8
231.7232 9.8
231.7514 9.8
231.7847 9.8
231.8145 9.8
231.8467 9.8
231.8774 9.8
231.9092 9.8
231.9426 9.8
231.9722 9.8
231.9999 9.8
232.0332 9.8
232.0622 9.8
232.0955 9.8
232.1225 9.8
232.1512 9.8
232.1809 9.8
232.2121 9.8
232.2454 9.8
232.2739 9.8
232.3072 9.8
232.3347 9.8
232.368 9.8
232.4013 9.8
232.433 9.8
232.4632 9.8
232.494 9.8
232.5248 9.8
232.5582 9.8
232.5914 9.8
232.6235 9.8
232.6522 9.8
232.6856 9.8
232.7189 9.8
232.7464 9.8
232.7762 9.8
232.8085 9.8
232.8418 9.8
232.8738 9.8
232.9071 9.8
232.94 9.8
232.9732 9.8
233.0045 9.8
233.0379 9.8
233.0712 9.8
233.0999 9.8
233.131 9.8
233.1608 9.8
233.1941 9.8
233.2249 9.8
233.2553 9.8
233.2855 9.8
233.3165 9.8
233.3498 9.8
233.3796 9.8
233.4102 9.8
233.4405 10
233.4704 10
233.5037 10
233.5326 10
233.5618 10
233.5949 10
233.6218 10
233.6552 10
233.6881 10
233.7156 10
233.7425 10
233.775 10
233.8084 10
233.841 10
233.8699 10
233.9029 10
233.9327 10
233.966 10
233.9941 10
234.0235 10
234.052 10
234.0854 10
234.1187 10
234.152 10
234.1806 10
234.2095 10
234.2368 10
234.2702 10
234.299 10
234.327 10
234.3545 10
234.3838 10
234.4171 10
234.4451 10
234.4758 10
234.5038 10
234.5338 10
234.5672 10
234.5976 10
234.6276 10
234.6606 10
234.6902 10
234.7235 10
234.7569 10
234.7862 10
234.8195 10
234.8488 10
234.8822 10
234.9114 10
234.9436 10
234.9702 10
234.9993 10
235.0327 10
235.0649 10
235.0945 10
235.1264 10
235.1558 10
235.1891 10
235.2171 10
235.2487 10
235.2775 10
235.3053 10
235.3387 10
235.3667 10
235.3958 10
235.4243 10
235.4533 10
235.4866 10
235.517 10
235.5493 10
235.5779 10
235.6112 10
235.6445 10
235.6737 10
235.7012 10
235.7317 10
235.7614 10
235.7948 10
235.8279 10
235.8563 10
235.887 10
235.9171 10
235.9504 10
235.9806 10
236.0134 10
236.0441 10
236.0713 10
236.1046 10
236.1379 10
236.1664 10
236.1975 10
236.2268 10
236.2602 10
236.2935 10
236.321 10
236.3544 10
236.3877 10
236.4211 10
236.4494 10
236.4812 10
236.5146 10
236.5479 10
236.5812 10
236.6117 10
236.6429 10
236.6747 10
236.7052 10
236.7386 10
236.7682 10
236.7977 10
236.8266 10
236.856 10
236.8894 10
236.9176 10
236.9476 10
236.9809 10
237.0128 10
237.0461 10
237.0754 10
237.1086 10
237.1417 10
237.1727 10
237.206 10
237.2378 10
237.2675 10
237.296 10
237.3283 10
237.3616 10
237.3949 10
237.4283 10
237.4561 10
237.4895 10
237.5228 10
237.5561 10
237.5855 10
237.6169 10
237.6471 10
237.6804 10
237.7106 10
237.7419 10
237.7752 10
237.8046 10
237.8379 10
237.8676 10
237.8967 10
237.93 10
237.9576 10
237.9909 10
238.0214 10
238.0519 10
238.0798 10
238.1131 10
238.1465 10
238.1755 10
238.2076 10
238.2397 10
238.2691 10
238.3024 10
238.3342 10
238.3647 10
238.3981 10
238.4314 10
