時間[s] タイヤの舵角[deg]
0 0
0.02 -3.25
0.05333333 -3.25
0.08332333 -3.25
0.1022603 -3.25
0.1088774 -3.25
0.1175528 -3.25
0.1288973 -3.25
0.1405628 -3.25
0.1521701 -3.25
0.1625385 -3.25
0.1734529 -3.25
0.2067863 -3.25
0.2401196 -3.25
0.2704395 -3.25
0.2996552 -3.25
0.3303026 -3.25
0.3569257 -3.25
0.3874352 -3.25
0.4156772 -3.25
0.4431428 -3.25
0.4692574 -3.25
0.4998531 -3.25
0.5331864 -3.25
0.5665197 -3.25
0.592576 -3.25
0.6235459 -3.25
0.6568793 -3.25
0.683411 -3.25
0.7115857 -3.25
0.7403209 -3.25
0.7683391 -3.25
0.79531 -3.25
0.8213359 -3.25
0.8499166 -3.25
0.8797668 -3.25
0.9095384 -3.25
0.937709 -3.25
0.9660798 -3.25
0.9994131 -3.25
1.032746 -3.25
1.063132 -3.25
1.094402 -3.25
1.127256 -3.25
1.155895 -3.25
1.183634 -3.25
1.21475 -3.25
1.242634 -3.25
1.272312 -3.25
1.305645 -3.25
1.333783 -3.25
1.363449 -3.25
1.395271 -3.25
1.426053 -3.25
1.456782 -3.25
1.487304 -3.25
1.518174 -3.25
1.546831 -3.25
1.577739 -3.25
1.611072 -3.25
1.638942 -3.25
1.666551 -3.25
1.695238 -3.25
1.728571 -3.25
1.758385 -3.25
1.787552 -3.25
1.815144 -3.25
1.843682 -3.25
1.871724 -3.25
1.902142 -3.25
1.93131 -3.25
1.963487 -3.25
1.99166 -3.25
2.017893 -3.25
2.050217 -3.25
2.079103 -3.25
2.107216 -3.25
2.133826 -3.25
2.163802 -3.25
2.197038 -3.25
2.224328 -3.25
2.252578 -3.25
2.283198 -3.25
2.316142 -3.25
2.34893 -3.25
2.37955 -3.25
2.412616 -3.25
2.445949 -3.25
2.476431 -3.25
2.504093 -3.25
2.531767 -3.25
2.561715 -3.25
2.588315 -3.25
2.615584 -3.25
2.648917 -3.25
2.680245 -3.25
2.707817 -3.25
2.741151 -3.25
2.774346 -3.25
2.806596 -3.25
2.839469 -3.25
2.866401 -3.25
2.895276 -3.25
2.925544 -3.25
2.953472 -3.25
2.985815 -3.25
3.014677 -3.25
3.043025 -3.25
3.072099 -3.25
3.098729 -3.25
3.130615 -3.25
3.163949 -3.25
3.197282 -3.25
3.226037 -3.25
3.257652 -3.25
3.288131 -3.25
3.315833 -3.25
3.3426 -3.25
3.37145 -3.25
3.399083 -3.25
3.430245 -3.25
3.459347 -3.25
3.49268 -3.25
3.525393 -3.25
3.553365 -3.25
3.581603 -3.25
3.614937 -3.25
3.645222 -3.25
3.671028 -3.25
3.699224 -3.25
3.732558 -3.25
3.765891 -3.25
3.792685 -3.25
3.822831 -3.25
3.85081 -3.25
3.884143 -3.25
3.917476 -3.25
3.944143 -3.25
3.972745 -3.25
3.999846 -3.25
4.028886 -3.25
4.06222 -3.25
4.095553 -3.25
4.127197 -3.25
4.157395 -3.25
4.186003 -3.25
4.219337 -3.25
4.246007 -3.25
4.273107 -3.25
4.301606 -3.25
4.332643 -3.25
4.36581 -3.25
4.399144 -3.25
4.42799 -3.25
4.457882 -3.25
4.487609 -3.25
4.516327 -3.25
4.54515 -3.25
4.573921 -3.25
4.601972 -3.25
4.633936 -3.25
4.659695 -3.25
4.691961 -3.25
4.720205 -3.25
4.748043 -3.25
4.78076 -3.25
4.810248 -3.25
4.839002 -3.25
4.865812 -3.25
4.892268 -3.25
4.925602 -3.25
4.958935 -3.25
4.987098 -3.25
5.018514 -3.25
5.046845 -3.25
5.074411 -3.25
5.107744 -3.25
5.13602 -3.25
5.163953 -3.25
5.193961 -3.25
5.225759 -3.25
5.252629 -3.25
5.282059 -3.25
5.313952 -3.25
5.34602 -3.25
5.377604 -3.25
5.407924 -3.25
5.43834 -3.25
5.470608 -3.25
5.50049 -3.25
5.531098 -3.25
5.564432 -3.25
5.597765 -3.25
5.631098 -3.25
5.664432 -3.25
5.695323 -3.25
5.727592 -3.25
5.755319 -3.25
5.784227 -3.25
5.81756 -3.25
5.848984 -3.25
5.879519 -3.25
5.90976 -3.25
5.943093 -3.25
5.972094 -3.25
6.005427 -3.25
6.036346 -3.25
6.06968 -3.25
6.103013 -3.25
6.133218 -3.25
6.161364 -3.25
6.19233 -3.25
6.220803 -3.25
6.254136 -3.25
6.286335 -3.25
6.316024 -3.25
6.342965 -3.25
6.368713 -3.25
6.397698 -3.25
6.428353 -3.25
6.456422 -3.25
6.484138 -3.25
6.517297 -3.25
6.55063 -3.25
6.581034 -3.25
6.607529 -3.25
6.636461 -3.25
6.666013 -3.25
6.696427 -3.25
6.723813 -3.25
6.752465 -3.25
6.784464 -3.25
6.813868 -3.25
6.842397 -3.25
6.87573 -3.25
6.907147 -3.25
6.94048 -3.25
6.96678 -3.25
6.994764 -3.25
7.026917 -3.25
7.05529 -3.25
7.085891 -3.25
7.113944 -3.25
7.143545 -3.25
7.170787 -3.25
7.197433 -3.25
7.226417 -3.25
7.25975 -3.25
7.290218 -3.25
7.31635 -3.25
7.347813 -3.25
7.378804 -3.25
7.411254 -3.25
7.444588 -3.25
7.473752 -3.25
7.503619 -3.25
7.531958 -3.25
7.559917 -3.25
7.589283 -3.25
7.622616 -3.25
7.653491 -3.25
7.680949 -3.25
7.71196 -3.25
7.740922 -3.25
7.770196 -3.25
7.796941 -3.25
7.827405 -3.25
7.859991 -3.25
7.889242 -3.25
7.920191 -3.25
7.95281 -3.25
7.981728 -3.25
8.013118 -3.25
8.040631 -3.25
8.069071 -3.25
8.10161 -3.25
8.128938 -3.25
8.154562 -3.25
8.187175 -3.25
8.215417 -3.25
8.248751 -3.25
8.280443 -3.25
8.313777 -3.25
8.344691 -3.25
8.373215 -3.25
8.400341 -3.25
8.430989 -3.25
8.46005 -3.25
8.490079 -3.25
8.517177 -3.25
8.547071 -3.25
8.577955 -3.25
8.606266 -3.25
8.635807 -3.25
8.66914 -3.25
8.696767 -3.25
8.724638 -3.25
8.757971 -3.25
8.789682 -3.25
8.817897 -3.25
8.848633 -3.25
8.876022 -3.25
8.908393 -3.25
8.941726 -3.25
8.967548 -3.25
9.000881 -3.25
9.031221 -3.25
9.064554 -3.25
9.097888 -3.25
9.124781 -3.25
9.153931 -3.25
9.183045 -3.25
9.210916 -3.25
9.241051 -3.25
9.267368 -3.25
9.297582 -3.25
9.324435 -3.25
9.35491 -3.25
9.382878 -3.25
9.412319 -3.25
9.44405 -3.25
9.471338 -3.25
9.501281 -3.25
9.534615 -3.25
9.567947 -3.25
9.594479 -3.25
9.625256 -3.25
9.655798 -3.25
9.682261 -3.25
9.710424 -3.25
9.741283 -3.25
9.773642 -3.25
9.803066 -3.25
9.832892 -3.25
9.866225 -3.25
9.894544 -3.25
9.925248 -3.25
9.9528 -3.25
9.986134 -3.25
10.01868 -3.25
10.05178 -3.25
10.08029 -3.25
10.10938 -3.25
10.14243 -3.25
10.17191 -3.25
10.20242 -3.25
10.23574 -3.25
10.26907 -3.25
10.29731 -3.25
10.32692 -3.25
10.35673 -3.25
10.38654 -3.25
10.41752 -3.25
10.44657 -3.25
10.47847 -3.25
10.50858 -3.25
10.53927 -3.25
10.57132 -3.25
10.60288 -3.25
10.63255 -3.25
10.66588 -3.25
10.69261 -3.25
10.72027 -3.25
10.74891 -3.25
10.77612 -3.25
10.80538 -3.25
10.83466 -3.25
10.86489 -3.25
10.89823 -3.25
10.92585 -3.25
10.95445 -3.25
10.98714 -3.25
11.01644 -3.25
11.04604 -3.25
11.07623 -3.25
11.10664 -3.25
11.13798 -3.25
11.17114 -3.25
11.20022 -3.25
11.22859 -3.25
11.2573 -3.25
11.2834 -3.25
11.31447 -3.25
11.34433 -3.25
11.37492 -3.25
11.4038 -3.25
11.43187 -3.25
11.461 -3.25
11.49434 -3.25
11.52369 -3.25
11.55416 -3.25
11.58443 -3.05
11.61575 -1.95
11.64207 -1.95
11.67335 -0.4
11.7023 -0.4
11.73199 1.05
11.75838 2.15
11.78861 2.15
11.81826 2.4
11.84634 2.4
11.87916 1.95
11.9082 1.05
11.93609 1.05
11.96558 -0.85
11.99891 -0.85
12.03123 -2.6
12.06085 -3.7
12.0888 -3.7
12.11902 -4.35
12.14846 -4.35
12.17681 -4.35
12.20322 -4.35
12.23637 -4.35
12.26731 -3.9
12.29511 -3.9
12.32495 -3.05
12.35829 -1.7
12.3849 -1.7
12.41824 -0.65
12.44697 -0.65
12.47945 1.05
12.5103 1.7
12.53898 1.7
12.56991 1.7
12.60203 1.7
12.63169 1.5
12.65926 0.65
12.69257 0.65
12.72072 -0.85
12.74972 -0.85
12.78015 -1.95
12.8072 -2.8
12.83707 -2.8
12.8704 -3.25
12.89877 -3.25
12.9303 -3.25
12.95913 -3.25
12.99123 -3.25
13.01963 -2.8
13.04859 -2.8
13.07572 -2.15
13.1055 -2.15
13.13881 -0.85
13.16587 0.65
13.19654 0.65
13.22987 1.05
13.26151 1.05
13.29195 1.05
13.32296 0.65
13.35287 0.65
13.3861 -0.2
13.41784 -1.05
13.45111 -1.05
13.4796 -1.95
13.50992 -3.05
13.5388 -3.05
13.56674 -3.7
13.59688 -3.7
13.62688 -3.9
13.6555 -3.9
13.68625 -3.9
13.71701 -3.7
13.75035 -3.7
13.78368 -3.05
13.81224 -2.4
13.84557 -2.4
13.87882 -1.3
13.91094 -0.65
13.93834 -0.65
13.97142 -0.4
14.00475 -0.4
14.03348 -0.4
14.05917 -0.85
14.08778 -0.85
14.11448 -1.3
14.14781 -1.3
14.18029 -2.8
14.21194 -3.9
14.24309 -3.9
14.27075 -5
14.30408 -5.45
14.33472 -5.45
14.36261 -5.45
14.39487 -5.45
14.4213 -5.45
14.45154 -5.2
14.48487 -5.2
14.51469 -4.8
14.54311 -4.8
14.57312 -3.9
14.60454 -2.8
14.63274 -2.8
14.66209 -1.95
14.69459 -1.95
14.72153 -1.3
14.74788 -1.3
14.77366 -1.3
14.80482 -1.3
14.8338 -1.3
14.86368 -1.3
14.89021 -1.3
14.92138 -1.5
14.95207 -1.95
14.97955 -1.95
15.00745 -2.6
15.03626 -2.6
15.06525 -3.25
15.09801 -3.45
15.13135 -3.45
15.16197 -3.7
15.1953 -3.7
15.22365 -3.7
15.25563 -3.7
15.28487 -3.7
15.3182 -3.7
15.35082 -3.7
15.37879 -3.7
15.40778 -3.7
15.43699 -3.7
15.47033 -3.7
15.49799 -3.7
15.52772 -3.7
15.55661 -3.7
15.58912 -3.7
15.61858 -3.7
15.65192 -3.7
15.6803 -3.7
15.70881 -3.7
15.74098 -3.7
15.7705 -3.7
15.79931 -3.7
15.83029 -3.7
15.8574 -3.7
15.88647 -3.7
15.91621 -3.7
15.94862 -3.7
15.97836 -3.7
16.01079 -3.7
16.04009 -3.7
16.06763 -3.7
16.09687 -3.7
16.1279 -3.7
16.15781 -3.7
16.1858 -3.7
16.21552 -3.7
16.24731 -3.7
16.27552 -3.7
16.30467 -3.7
16.33696 -3.7
16.36567 -3.45
16.39465 -3.45
16.42642 -3.45
16.45776 -3.45
16.4893 -3.45
16.5204 -3.25
16.55255 -3.25
16.58046 -3.25
16.61379 -3.25
16.64435 -3.25
16.67605 -3.25
16.7022 -3.25
16.7313 -3.25
16.76463 -3.25
16.79797 -3.25
16.82673 -3.25
16.86006 -3.25
16.89187 -3.25
16.91967 -3.25
16.94745 -3.25
16.97715 -3.25
17.00694 -3.25
17.03643 -3.25
17.06343 -3.25
17.09676 -3.05
17.12742 -3.05
17.15944 -2.6
17.19278 -2.4
17.22565 -2.4
17.25615 -2.4
17.28608 -2.4
17.31599 -2.4
17.3453 -2.4
17.37463 -2.4
17.40724 -2.4
17.43515 -2.4
17.46848 -2.4
17.49713 -2.4
17.52462 -2.4
17.55154 -2.4
17.58045 -2.4
17.61237 -2.4
17.6457 -2.4
17.67556 -2.4
17.70785 -2.4
17.73868 -2.4
17.77201 -2.4
17.80467 -2.4
17.83434 -2.4
17.86214 -2.4
17.89506 -2.4
17.92459 -2.4
17.95748 -2.4
17.98437 -2.4
18.01325 -2.4
18.04072 -2.4
18.07019 -2.4
18.10154 -2.4
18.13252 -2.4
18.15863 -2.4
18.18831 -2.4
18.21739 -2.4
18.24652 -2.4
18.27982 -2.4
18.31315 -2.4
18.34646 -2.4
18.37442 -2.4
18.40741 -2.4
18.44074 -2.4
18.4698 -2.4
18.49821 -2.4
18.52711 -2.4
18.55854 -2.4
18.58785 -2.4
18.61842 -2.4
18.65082 -2.4
18.67993 -2.4
18.71326 -2.4
18.74659 -2.4
18.77416 -2.4
18.80412 -2.4
18.83532 -2.4
18.86646 -2.4
18.89913 -2.4
18.93221 -2.4
18.96446 -2.4
18.99747 -2.4
19.02438 -2.4
19.05316 -2.4
19.08274 -2.4
19.11119 -2.4
19.14134 -2.4
19.17134 -2.4
19.20175 -2.4
19.23246 -2.4
19.25955 -2.4
19.29051 -2.4
19.32384 -2.4
19.35201 -2.4
19.3849 -2.4
19.4144 -2.4
19.44466 -2.4
19.47322 -2.4
19.50191 -2.4
19.52979 -2.4
19.56151 -2.4
19.5902 -2.4
19.6215 -2.4
19.64981 -2.4
19.68183 -2.4
19.70922 -2.4
19.73748 -2.4
19.76514 -2.4
19.79594 -2.4
19.82741 -2.4
19.85618 -2.4
19.88738 -2.4
19.91901 -2.4
19.95116 -2.4
19.97824 -2.4
20.00911 -2.4
20.04065 -2.4
20.0723 -2.4
20.10436 -2.4
20.13466 -2.4
20.16652 -2.4
20.19921 -2.4
20.22615 -2.4
20.25583 -2.4
20.28537 -2.4
20.31742 -2.4
20.34382 -2.4
20.37374 -2.4
20.40294 -2.4
20.43266 -2.4
20.46021 -2.4
20.49042 -2.4
20.51927 -2.4
20.54795 -2.4
20.58128 -2.4
20.61334 -2.4
20.64555 -2.4
20.6747 -2.4
20.7022 -2.4
20.73553 -2.4
20.76544 -2.4
20.79541 -2.4
20.82377 -2.4
20.85327 -2.4
20.88625 -2.4
20.91958 -2.4
20.95045 -2.4
20.98379 -2.4
21.01644 -2.4
21.04631 -2.4
21.07617 -2.4
21.10571 -2.4
21.13627 -2.4
21.1696 -2.4
21.20054 -2.4
21.2301 -2.4
21.26344 -2.4
21.29677 -2.4
21.32586 -2.4
21.3547 -2.4
21.38267 -2.4
21.41557 -2.4
21.44295 -2.4
21.47628 -2.4
21.50611 -2.4
21.53671 -2.4
21.56453 -2.4
21.59521 -2.4
21.62749 -2.4
21.65551 -2.4
21.68275 -2.4
21.71608 -2.4
21.7463 -2.4
21.77744 -2.4
21.81077 -2.4
21.84004 -2.4
21.86818 -2.4
21.90005 -2.4
21.92893 -2.4
21.95743 -2.4
21.98926 -2.4
22.02101 -2.4
22.05264 -2.4
22.08353 -2.4
22.11509 -2.4
22.14842 -2.4
22.18171 -2.4
22.21505 -2.4
22.24838 -2.4
22.2781 -2.4
22.30651 -2.4
22.33767 -2.4
22.37101 -2.4
22.39905 -2.4
22.42915 -2.4
22.46156 -2.4
22.49141 -2.4
22.51999 -2.4
22.54933 -2.4
22.58266 -2.4
22.61253 -2.4
22.64535 -2.4
22.6722 -2.4
22.70525 -2.4
22.73521 -2.4
22.76347 -2.4
22.79611 -2.4
22.82525 -2.4
22.85232 -2.4
22.88566 -2.4
22.91459 -2.4
22.94333 -2.4
22.97308 -2.4
23.00427 -2.4
23.03178 -2.4
23.06132 -2.4
23.09465 -2.4
23.12375 -2.4
23.15177 -2.4
23.18122 -2.4
23.21072 -2.4
23.24109 -2.4
23.26761 -2.4
23.29705 -2.4
23.32838 -2.4
23.35674 -2.4
23.39007 -2.4
23.4218 -2.4
23.45513 -2.4
23.48518 -2.4
23.51254 -2.4
23.54356 -2.4
23.5751 -2.4
23.60253 -2.4
23.62931 -2.4
23.65818 -2.4
23.69151 -2.4
23.72208 -2.4
23.74973 -2.4
23.78248 -2.4
23.81093 -2.4
23.83932 -2.4
23.86718 -2.4
23.90051 -2.4
23.93212 -2.4
23.96009 -2.4
23.99343 -2.4
24.02488 -2.4
24.05808 -2.4
24.08654 -2.4
24.11716 -2.4
24.15014 -2.4
24.17934 -2.4
24.21078 -2.4
24.24339 -2.4
24.27137 -2.4
24.30248 -2.4
24.33422 -2.4
24.36086 -2.4
24.39035 -2.4
24.42368 -2.4
24.45157 -2.4
24.47903 -2.4
24.51237 -2.4
24.54102 -2.4
24.572 -2.4
24.60275 -2.4
24.63297 -2.4
24.66275 -2.4
24.694 -2.4
24.72083 -2.4
24.74969 -2.4
24.78251 -2.4
24.81584 -2.4
24.84375 -2.4
24.87541 -2.4
24.90669 -2.4
24.93742 -2.4
24.96607 -2.4
24.9994 -2.4
25.03034 -2.4
25.06322 -2.4
25.09243 -2.4
25.12443 -2.4
25.15521 -2.4
25.18414 -2.4
25.21161 -2.4
25.24216 -2.4
25.27549 -2.4
25.30882 -2.4
25.33548 -2.4
25.36882 -2.4
25.40215 -2.4
25.43548 -2.4
25.46442 -2.4
25.49372 -2.4
25.52705 -2.4
25.55508 -2.4
25.58327 -2.4
25.6166 -2.4
25.64501 -2.4
25.67229 -2.4
25.70432 -2.4
25.73346 -2.4
25.76542 -2.4
25.79875 -2.4
25.83109 -2.4
25.86424 -2.4
25.89757 -2.4
25.92494 -2.4
25.95431 -2.4
25.98618 -2.4
26.01929 -2.4
26.05044 -2.4
26.07733 -2.4
26.11066 -2.4
26.13912 -2.4
26.16716 -2.4
26.20049 -2.4
26.23173 -2.4
26.26184 -2.4
26.2926 -2.4
26.31898 -2.4
26.34997 -2.4
26.37899 -2.4
26.40877 -2.4
26.44085 -2.4
26.46968 -2.4
26.49827 -2.4
26.52537 -2.4
26.55822 -2.4
26.59155 -2.4
26.62092 -2.4
26.64851 -2.4
26.67518 -2.4
26.70353 -2.4
26.73394 -2.4
26.76475 -2.4
26.79418 -2.4
26.82457 -2.4
26.85535 -2.4
26.88868 -2.4
26.9173 -2.4
26.95063 -2.4
26.98396 -2.4
27.01123 -2.4
27.03748 -2.4
27.06646 -2.4
27.09674 -2.4
27.12427 -2.4
27.15059 -2.4
27.1813 -2.4
27.2103 -2.4
27.24142 -2.4
27.2704 -2.4
27.30373 -2.4
27.33468 -2.4
27.36296 -2.4
27.39478 -2.4
27.42471 -2.4
27.4557 -2.4
27.48409 -2.4
27.51168 -2.4
27.5413 -2.4
27.57386 -2.4
27.60719 -2.4
27.6333 -2.4
27.66496 -2.4
27.69775 -2.4
27.72932 -2.4
27.7598 -2.4
27.78997 -2.4
27.8233 -2.4
27.85664 -2.4
27.88612 -2.4
27.91945 -2.4
27.94877 -2.4
27.97633 -2.4
28.00388 -2.4
28.03627 -2.4
28.06447 -2.4
28.09609 -2.4
28.12707 -2.4
28.15811 -2.4
28.19144 -2.4
28.21823 -2.4
28.24644 -2.4
28.27627 -2.4
28.30736 -2.4
28.33803 -2.4
28.37137 -2.4
28.4047 -2.4
28.43388 -2.4
28.46594 -2.4
28.49271 -2.4
28.52435 -2.4
28.55502 -2.4
28.58422 -2.4
28.61152 -2.4
28.64459 -2.4
28.67346 -2.4
28.70679 -2.4
28.73957 -2.4
28.7689 -2.4
28.79738 -2.4
28.82874 -2.4
28.8588 -2.4
28.89213 -2.4
28.9251 -2.4
28.95443 -2.4
28.98241 -2.4
29.01573 -2.4
29.04533 -2.15
29.07538 -2.15
29.10345 -1.95
29.13268 -1.5
29.1615 -1.5
29.18975 -1.3
29.21686 -1.3
29.25019 -0.85
29.28353 -0.85
29.31483 -0.85
29.34195 -0.85
29.37362 -0.85
29.40636 -0.85
29.4353 -0.85
29.46415 -0.85
29.49663 -0.85
29.52596 -0.85
29.55682 -0.85
29.58375 -0.85
29.61225 -0.85
29.6454 -0.85
29.6741 -0.85
29.70278 -0.85
29.73331 -1.05
29.76399 -1.05
29.79151 -1.05
29.82244 -1.05
29.85294 -1.05
29.88404 -1.05
29.91205 -1.05
29.93972 -1.05
29.96902 -1.05
29.99659 -1.3
30.02942 -1.7
30.05766 -1.7
30.08908 -1.95
30.11755 -1.95
30.14962 -1.95
30.17754 -1.95
30.21087 -1.95
30.24143 -1.95
30.27017 -1.95
30.29806 -1.95
30.32734 -1.95
30.35551 -1.95
30.3844 -1.95
30.41177 -1.95
30.44263 -1.95
30.47189 -1.95
30.50015 -1.95
30.52718 -1.95
30.5563 -1.95
30.58407 -1.95
30.6136 -1.95
30.64129 -1.95
30.67238 -1.95
30.70103 -1.95
30.73226 -1.95
30.762 -1.95
30.79362 -1.95
30.82565 -1.95
30.85898 -1.95
30.88934 -1.95
30.92001 -1.95
30.9487 -1.95
30.97604 -1.95
31.00394 -1.95
31.03502 -1.95
31.0628 -1.95
31.09072 -1.95
31.12405 -1.95
31.15302 -1.95
31.18198 -1.95
31.21422 -1.95
31.24318 -1.95
31.27571 -1.95
31.30904 -1.95
31.33773 -1.95
31.36587 -1.95
31.3953 -1.95
31.42418 -2.15
31.45424 -2.15
31.48331 -2.4
31.51357 -2.4
31.54198 -2.8
31.57074 -3.05
31.5982 -3.05
31.63091 -3.05
31.6599 -3.05
31.68871 -3.05
31.71589 -3.05
31.74509 -3.05
31.77442 -3.05
31.80218 -3.05
31.831 -3.05
31.86434 -3.05
31.89468 -3.05
31.92801 -3.05
31.95524 -3.05
31.9875 -3.05
32.01637 -3.05
32.04478 -3.05
32.07179 -3.05
32.10227 -3.05
32.13065 -2.8
32.15906 -2.8
32.18823 -2.8
32.21903 -2.8
32.25236 -2.8
32.28448 -2.8
32.3157 -2.8
32.34682 -2.6
32.37766 -2.6
32.40631 -2.6
32.43565 -2.4
32.46898 -2.15
32.50232 -2.15
32.53233 -2.15
32.5596 -2.15
32.59169 -2.15
32.62331 -2.15
32.652 -2.15
32.68004 -2.15
32.71088 -2.15
32.74017 -2.15
32.77021 -2.15
32.7987 -2.15
32.82958 -1.95
32.85806 -1.95
32.89072 -1.7
32.91771 -1.7
32.94889 -1.7
32.98223 -1.7
33.01268 -1.7
33.0415 -1.7
33.0706 -1.5
33.10156 -1.5
33.13038 -0.85
33.15759 -0.85
33.18779 0.4
33.21974 1.5
33.24924 1.5
33.27727 2.4
33.30809 2.4
33.33681 2.8
33.36721 2.8
33.39567 2.8
33.42316 2.15
33.45495 2.15
33.48829 0.85
33.52056 -1.5
33.55016 -1.5
33.57969 -3.25
33.60891 -5
33.63659 -5
33.66693 -5.65
33.69581 -5.65
33.72914 -5.45
33.75816 -5.2
33.78821 -5.2
33.82154 -4.35
33.84982 -4.35
33.88316 -3.25
33.91412 -2.15
33.9446 -2.15
33.97646 -1.5
34.0072 -0.85
34.03788 -0.85
34.06949 -0.85
34.09756 -0.85
34.1245 -0.85
34.15614 -0.85
34.18559 -0.85
34.21532 -0.85
34.24365 -0.85
34.27471 0.2
34.30542 1.3
34.33384 1.3
34.36273 1.95
34.39606 1.95
34.42377 2.4
34.45214 2.8
34.47878 2.8
34.50942 3.25
34.54276 3.25
34.5708 3.9
34.60136 4.8
34.63008 4.8
34.65891 5.2
34.69184 5.2
34.72233 5.45
34.75507 5.65
34.78451 5.65
34.81658 6.1
34.84599 6.1
34.87837 6.75
34.91171 8.05
34.94504 8.05
34.97736 9.35
35.00544 10.25
35.03463 10.25
35.06384 10.9
35.0918 10.9
35.1212 12
35.14928 12
35.17743 13.1
35.20573 14.15
35.23487 14.15
35.26428 15.5
35.29761 17
35.32449 17
35.35651 18.55
35.38622 18.55
35.41522 20.3
35.44524 22.5
35.4743 22.5
35.50203 24.2
35.5348 24.2
35.56109 25.3
35.59061 25.3
35.62119 27.3
35.65453 28.35
35.68156 28.35
35.70902 29.9
35.73842 29.9
35.76712 31.65
35.79691 33.4
35.82605 33.4
35.85938 35.35
35.88855 35.35
35.91935 36.9
35.95147 38.65
35.9848 38.65
36.01366 39.95
36.0456 40.8
36.07893 40.8
36.11227 41.5
36.14197 41.9
36.17036 41.9
36.20123 42.15
36.22916 42.15
36.26245 42.55
36.29095 42.55
36.32185 42.55
36.35518 42.55
36.3855 42.55
36.41195 42.8
36.44528 42.8
36.47448 42.8
36.50653 42.8
36.53423 42.55
36.56701 42.55
36.60034 42.55
36.62992 42.35
36.65689 42.35
36.68426 41.9
36.71264 41.9
36.74477 41.5
36.77348 41.5
36.8055 41.25
36.83847 41.05
36.86944 41.05
36.89915 40.8
36.92874 40.8
36.96114 40.8
36.99301 40.8
37.0207 40.8
37.04947 40.8
37.08049 40.6
37.11383 40.6
37.14161 39.95
37.17097 39.95
37.2043 38
37.23509 34.95
37.26303 34.95
37.29636 29.45
37.32376 23.35
37.35184 23.35
37.38445 13.5
37.41502 13.5
37.4439 4.8
37.47355 -5
37.5042 -5
37.53552 -10.9
37.56885 -12.85
37.59624 -12.85
37.62457 -13.75
37.6579 -13.75
37.68506 -15.05
37.71329 -17.45
37.74057 -17.45
37.77174 -20.5
37.80478 -20.5
37.834 -23.15
37.8659 -26.65
37.89475 -26.65
37.92556 -30.35
37.954 -30.35
37.98258 -32.95
38.01521 -35.6
38.04694 -35.6
38.07645 -38.4
38.10485 -38.4
38.13365 -41.25
38.16698 -43.45
38.19511 -43.45
38.22242 -45.85
38.25061 -45.85
38.28016 -49.35
38.30805 -51.95
38.33541 -51.95
38.36813 -54.6
38.40146 -54.6
38.42971 -56.75
38.45773 -58.5
38.48529 -58.5
38.51326 -60.25
38.54336 -60.25
38.57057 -61.35
38.59867 -61.35
38.63089 -62
38.6588 -62.45
38.69201 -62.45
38.72388 -62.65
38.75721 -62.9
38.78621 -62.9
38.81319 -62.9
38.84091 -62.9
38.87098 -63.3
38.90181 -63.3
38.92989 -63.75
38.96323 -64.4
38.99069 -64.4
39.02093 -64.4
39.05125 -64.4
39.08459 -64.4
39.11244 -64.4
39.1402 -64.4
39.16871 -64.4
39.19767 -64.4
39.22862 -64.4
39.25862 -64
39.29179 -64
39.32145 -62.9
39.35414 -58.95
39.38414 -58.95
39.41314 -54.15
39.44648 -54.15
39.47918 -43.65
39.51251 -34.25
39.53923 -34.25
39.57236 -21.15
39.6004 -6.75
39.63102 -6.75
39.65933 2.8
39.68927 2.8
39.72258 7.6
39.75591 6.1
39.78321 6.1
39.81222 2.15
39.84071 2.15
39.87115 -3.45
39.89806 -8.05
39.92857 -8.05
39.95815 -13.3
39.98539 -13.3
40.01493 -16.8
40.04826 -17.9
40.07978 -17.9
40.10775 -17.9
40.13759 -17.9
40.16676 -17.9
40.19556 -17.9
40.22635 -17.9
40.25494 -17.9
40.28828 -17.9
40.32161 -17.9
40.35494 -17.9
40.38385 -17.9
40.41287 -17.9
40.44621 -18.3
40.47383 -18.3
40.50338 -19
40.53671 -19
40.56886 -19.4
40.59761 -19.4
40.62442 -19.4
40.65722 -18.75
40.688 -18.75
40.71508 -17.9
40.74244 -17.25
40.77309 -17.25
40.8014 -16.8
40.83356 -16.8
40.86183 -16.6
40.89285 -16.6
40.92619 -16.6
40.9577 -16.6
40.98593 -16.6
41.01651 -16.6
41.04491 -16.35
41.07581 -16.35
41.10552 -15.7
41.13747 -15.7
41.16674 -15.05
41.19483 -14.4
41.22139 -14.4
41.24935 -13.75
41.28269 -13.75
41.31602 -13.3
41.34935 -12.65
41.37831 -12.65
41.40738 -12.2
41.43658 -11.35
41.4641 -11.35
41.49284 -10.45
41.52463 -10.45
41.55368 -9.15
41.58306 -7.6
41.61161 -7.6
41.64296 -5.85
41.67242 -5.85
41.70338 -4.35
41.73354 -2.15
41.76655 -2.15
41.7942 -0.4
41.82296 -0.4
41.85048 1.95
41.88382 3.9
41.91301 3.9
41.94353 5.45
41.9731 5.45
42.00152 6.3
42.03033 6.3
42.05776 6.95
42.08804 6.95
42.12137 6.95
42.15249 6.95
42.18028 6.95
42.21225 6.95
42.24501 6.95
42.27806 6.95
42.30935 6.95
42.34269 7.6
42.37028 7.6
42.40242 9.15
42.43046 10.45
42.46379 10.45
42.49664 11.75
42.52997 12.65
42.55811 12.65
42.58608 12.85
42.61915 12.85
42.65232 13.5
42.67947 14.4
42.71191 14.4
42.74377 15.5
42.77179 15.5
42.79822 17
42.83135 19
42.86287 19
42.89451 20.5
42.92475 20.5
42.95536 22.05
42.98481 24
43.01242 24
43.0437 25.75
43.07703 27.5
43.10552 27.5
43.13695 29.45
43.16673 29.45
43.20007 31
43.23169 32.75
43.26089 32.75
43.29261 34.25
43.32071 36
43.35212 36
43.38545 37.75
43.41214 37.75
43.4395 38.85
43.46853 38.85
43.49746 40.15
43.52913 41.5
43.56247 41.5
43.59295 42.55
43.62247 43.65
43.65162 43.65
43.68252 45
43.71191 45
43.7431 46.3
43.7761 47.8
43.80943 47.8
43.83801 49.35
43.86928 50.65
43.89928 50.65
43.9313 51.95
43.959 51.95
43.99234 53.3
44.01914 54.15
44.05096 54.15
44.07855 54.6
44.10899 54.6
44.13685 54.6
44.17019 54.8
44.203 54.8
44.23586 55.9
44.26679 57.85
44.29564 57.85
44.32542 60.25
44.3572 60.25
44.38598 63.1
44.41539 66.4
44.44502 66.4
44.47655 68.15
44.5031 68.15
44.53234 71.65
44.56368 74.25
44.59215 74.25
44.61984 77.5
44.64869 77.5
44.67725 80.8
44.71016 80.8
44.74349 84.1
44.77323 86.7
44.80656 86.7
44.83547 89.75
44.86653 92.6
44.89986 92.6
44.93017 95
44.9589 95
44.98568 98.5
45.01698 101.75
45.05031 101.75
45.07918 104.4
45.10629 104.4
45.13655 106.15
45.16764 107.9
45.1962 107.9
45.22482 109
45.256 109
45.28573 109.85
45.31433 110.3
45.34767 110.3
45.37609 110.75
45.40573 111.15
45.43482 111.15
45.46347 111.4
45.49222 111.4
45.52134 111.6
45.55341 111.6
45.58519 112.05
45.61676 112.9
45.64667 112.9
45.67857 113.35
45.70744 113.8
45.74078 113.8
45.77171 114.2
45.80176 114.9
45.83168 114.9
45.86046 115.3
45.88982 115.3
45.91955 115.95
45.94849 116.65
45.98182 116.65
46.01023 117.7
46.04049 117.7
46.06809 118.8
46.09738 118.8
46.12734 119.9
46.15541 121
46.18874 121
46.22208 121.65
46.25541 122.5
46.28579 122.5
46.31424 123.2
46.34365 123.2
46.37659 123.6
46.40582 124.05
46.4342 124.05
46.46749 124.25
46.49597 124.25
46.52766 124.5
46.55479 124.7
46.58675 124.7
46.61382 124.7
46.64478 124.7
46.67811 124.7
46.70766 124.7
46.741 124.7
46.76947 124.7
46.79905 124.7
46.82779 124.7
46.86112 124.7
46.88945 124.7
46.91574 124.7
46.94907 124.7
46.97712 124.7
47.00683 124.7
47.03693 124.7
47.07027 124.7
47.10012 124.7
47.12781 124.7
47.15968 124.5
47.18955 123.85
47.21753 123.85
47.24898 122.95
47.27627 122.95
47.30754 121.85
47.33709 121.85
47.36731 120.8
47.39802 119.9
47.42887 119.9
47.46028 119.9
47.48951 119.9
47.51822 119.9
47.54862 119.9
47.58065 119.9
47.60859 119.9
47.64193 119.9
47.67024 119.9
47.70061 119.45
47.73151 119.45
47.76113 118.6
47.79072 115.75
47.82191 115.75
47.85096 112.05
47.88381 112.05
47.91524 106.35
47.94596 98.95
47.97929 98.95
48.0066 90.85
48.03975 83
48.06757 83
48.09545 77.5
48.12272 77.5
48.15606 71.85
48.1889 66.4
48.22028 66.4
48.24986 62.65
48.2832 62.65
48.31167 58.75
48.34408 56.75
48.37241 56.75
48.40104 55.25
48.42949 55.25
48.4603 54.8
48.48743 54.15
48.51991 54.15
48.55091 53.7
48.58105 53.7
48.61011 53.3
48.63971 53.3
48.67304 53.3
48.70264 53.3
48.73319 51.3
48.7611 51.3
48.79342 48.25
48.82082 48.25
48.84861 45
48.87882 45
48.90665 41.9
48.93502 39.1
48.96703 39.1
48.99975 36.9
49.02844 36.9
49.05926 35.8
49.0868 34.95
49.11502 34.95
49.14836 34.7
49.17593 34.7
49.20867 34.5
49.24127 32.95
49.27196 32.95
49.29998 31
49.3302 31
49.3597 28.15
49.38894 25.75
49.41702 25.75
49.4441 24.2
49.47622 24.2
49.50956 23.55
49.54114 23.15
49.57417 23.15
49.6075 21.4
49.63679 19.65
49.66749 19.65
49.69955 17.65
49.7308 15.9
49.76031 15.9
49.78915 13.5
49.82052 13.5
49.85155 10.45
49.88023 7.2
49.91357 7.2
49.94269 4.8
49.97602 2.15
50.00572 2.15
50.03415 0.4
50.06749 0.4
50.09891 -1.3
50.12716 -1.95
50.15803 -1.95
50.18511 -2.15
50.21648 -2.15
50.24896 -2.15
50.28144 -2.15
50.30927 -2.15
50.34114 -2.15
50.37032 -2.15
50.39803 -2.15
50.42788 -2.15
50.46019 -2.15
50.48894 -2.4
50.52018 -2.4
50.55136 -2.8
50.5815 -3.7
50.61259 -3.7
50.642 -4.35
50.67533 -4.55
50.70452 -4.55
50.7349 -4.8
50.76525 -4.8
50.79858 -4.8
50.83036 -4.8
50.86369 -4.8
50.89481 -4.8
50.92815 -4.8
50.96148 -4.8
50.99382 -4.8
51.02174 -4.8
51.04892 -4.8
51.08225 -4.8
51.1108 -4.8
51.13913 -4.8
51.16739 -4.8
51.20072 -4.8
51.22942 -4.8
51.2624 -4.8
51.29497 -4.8
51.32612 -4.8
51.35709 -4.8
51.38562 -4.8
51.41497 -4.8
51.44551 -4.8
51.47553 -4.8
51.50491 -4.8
51.53624 -4.8
51.56699 -4.8
51.59483 -4.8
51.62554 -4.8
51.65726 -4.8
51.68629 -4.8
51.715 -4.8
51.7435 -4.8
51.772 -4.8
51.8039 -4.8
51.83723 -4.8
51.87056 -4.8
51.90136 -4.8
51.93469 -4.55
51.96748 -4.55
51.99902 -4.55
52.02918 -4.35
52.05856 -4.15
52.08979 -4.15
52.1221 -4.15
52.15042 -4.15
52.18375 -4.15
52.21221 -4.15
52.2444 -4.15
52.27121 -4.15
52.30096 -4.15
52.33105 -4.15
52.35968 -4.15
52.38775 -4.15
52.41795 -4.15
52.44845 -4.15
52.48178 -4.15
52.50928 -4.15
52.54261 -4.15
52.57149 -4.15
52.60242 -4.15
52.62983 -4.15
52.6614 -4.15
52.69105 -4.15
52.72388 -4.15
52.75195 -4.15
52.78528 -4.15
52.81709 -4.15
52.84654 -4.15
52.87987 -4.15
52.9132 -4.15
52.94216 -4.15
52.97103 -4.15
52.99793 -4.15
53.02878 -4.15
53.06038 -4.15
53.08803 -4.15
53.12136 -4.15
53.15083 -4.15
53.17972 -4.15
53.21305 -4.15
53.24263 -4.15
53.27129 -4.15
53.30039 -4.15
53.32869 -4.15
53.35658 -4.15
53.38991 -4.15
53.42116 -4.15
53.45449 -4.15
53.48209 -4.15
53.51207 -4.15
53.54105 -4.15
53.57144 -4.15
53.60302 -4.15
53.63636 -4.15
53.66969 -4.15
53.69774 -3.9
53.72697 -3.9
53.75578 -3.9
53.78759 -3.9
53.81618 -3.9
53.84497 -3.9
53.87466 -3.9
53.90467 -3.9
53.93362 -3.7
53.96255 -3.7
53.99583 -3.7
54.02917 -3.7
54.0625 -3.7
54.09583 -3.7
54.12745 -3.7
54.15607 -3.7
54.18773 -3.7
54.21538 -3.7
54.24792 -3.7
54.27959 -3.7
54.30756 -3.7
54.34087 -3.7
54.37079 -3.7
54.40229 -3.7
54.43563 -3.7
54.46411 -3.7
54.49324 -3.7
54.52508 -3.7
54.55265 -3.7
54.58008 -3.7
54.61341 -3.7
54.64202 -3.25
54.67259 -3.25
54.70592 -3.05
54.73411 -2.6
54.76744 -2.6
54.79693 -2.6
54.8293 -2.6
54.86168 -2.6
54.89501 -2.6
54.92284 -2.6
54.95257 -2.6
54.98143 -2.6
55.01476 -2.6
55.04367 -2.6
55.07234 -2.6
55.10535 -2.6
55.13572 -2.6
55.16575 -2.6
55.19267 -2.6
55.2212 -2.6
55.25453 -2.6
55.28521 -2.6
55.31243 -2.6
55.34323 -2.6
55.3726 -2.6
55.40562 -2.6
55.43641 -2.6
55.46782 -2.6
55.49694 -2.6
55.52926 -2.6
55.56215 -2.6
55.59548 -2.6
55.62881 -2.6
55.6584 -2.6
55.68824 -2.6
55.71745 -2.6
55.75079 -2.6
55.77866 -2.6
55.80507 -2.6
55.83546 -2.6
55.86579 -2.6
55.89829 -2.6
55.92516 -2.6
55.95753 -2.6
55.99003 -2.6
56.01779 -2.6
56.04581 -2.6
56.07825 -2.6
56.10981 -2.6
56.14089 -2.6
56.16911 -2.6
56.20145 -2.6
56.23254 -2.6
56.26033 -2.6
56.29366 -2.6
56.32508 -2.6
56.35593 -2.6
56.38548 -2.6
56.41309 -2.6
56.44405 -2.6
56.47675 -2.6
56.50563 -2.6
56.53715 -2.6
56.56701 -2.6
56.59849 -2.6
56.62722 -2.6
56.65473 -2.6
56.68642 -2.6
56.71975 -2.6
56.74891 -2.6
56.78225 -2.6
56.81558 -2.6
56.84417 -2.6
56.87223 -2.6
56.90483 -2.6
56.93357 -2.6
56.96326 -2.6
56.99601 -2.6
57.02934 -2.6
57.06267 -2.6
57.09198 -2.6
57.12203 -2.6
57.15294 -2.6
57.18516 -2.6
57.21533 -2.6
57.24461 -2.6
57.27694 -2.6
57.30525 -2.6
57.33416 -2.6
57.36641 -2.6
57.3932 -2.6
57.42333 -2.6
57.45264 -2.6
57.4803 -2.6
57.50872 -2.6
57.53778 -2.6
57.56751 -2.6
57.60084 -2.6
57.63133 -2.6
57.66422 -2.6
57.69756 -2.6
57.72691 -2.6
57.75499 -2.6
57.7874 -2.6
57.81784 -2.6
57.84682 -2.6
57.87472 -2.6
57.90401 -2.6
57.93617 -2.6
57.96562 -2.6
57.99866 -2.6
58.02762 -2.6
58.05909 -2.6
58.089 -2.6
58.11846 -2.6
58.1496 -2.6
58.17849 -2.6
58.20722 -2.6
58.23694 -2.6
58.27028 -2.6
58.30032 -2.6
58.33366 -2.6
58.36286 -2.6
58.3922 -2.6
58.42074 -2.6
58.44939 -2.6
58.47751 -2.6
58.50791 -2.6
58.53886 -2.6
58.56665 -2.6
58.59783 -2.6
58.62829 -2.6
58.66162 -2.6
58.692 -2.6
58.71912 -2.6
58.74857 -2.6
58.78188 -2.6
58.81062 -2.6
58.84084 -2.6
58.87185 -2.6
58.90152 -2.6
58.93486 -2.6
58.96637 -2.6
58.99561 -2.6
59.02446 -2.6
59.05354 -2.6
59.08113 -2.6
59.11046 -2.6
59.13994 -2.6
59.17283 -2.6
59.19931 -2.6
59.23264 -2.6
59.26415 -2.6
59.29292 -2.6
59.32435 -2.6
59.35291 -2.6
59.38292 -2.6
59.41342 -2.6
59.443 -2.6
59.47633 -2.6
59.50551 -2.6
59.53454 -2.6
59.56194 -2.6
59.5923 -2.6
59.62148 -2.6
59.65085 -2.6
59.67945 -2.6
59.71194 -2.6
59.74528 -2.6
59.77608 -2.6
59.80314 -2.6
59.83339 -2.6
59.8625 -2.6
59.89158 -2.6
59.9242 -2.6
59.95271 -2.6
59.98363 -2.6
60.01188 -2.6
60.04369 -2.6
60.0727 -2.6
60.1043 -2.6
60.13299 -2.6
60.16036 -2.6
60.19369 -2.6
60.22145 -2.6
60.25373 -2.6
60.2843 -2.6
60.31488 -2.6
60.34822 -2.6
60.37886 -2.6
60.41219 -2.6
60.44033 -2.6
60.47066 -2.6
60.4986 -2.6
60.52743 -2.6
60.55959 -2.6
60.59292 -2.6
60.62579 -2.6
60.65393 -2.6
60.68727 -2.6
60.71576 -2.6
60.74538 -2.6
60.77228 -2.6
60.80451 -2.6
60.83346 -2.6
60.86501 -2.6
60.89502 -2.6
60.92323 -2.6
60.95586 -2.6
60.98815 -2.6
61.01934 -2.6
61.04752 -2.6
61.08071 -2.6
61.10979 -2.6
61.14231 -2.6
61.17129 -2.6
61.20269 -2.6
61.23245 -2.6
61.26578 -2.6
61.29911 -2.6
61.33018 -2.6
61.36351 -2.6
61.3941 -2.6
61.42706 -2.6
61.45579 -2.6
61.48635 -2.6
61.51413 -2.6
61.54525 -2.6
61.57507 -2.6
61.6084 -2.6
61.63702 -2.6
61.66623 -2.6
61.69525 -2.6
61.72317 -2.6
61.75133 -2.6
61.78105 -2.6
61.8106 -2.6
61.83883 -2.6
61.87216 -2.6
61.90216 -2.6
61.93549 -2.6
61.96882 -2.6
61.99657 -2.6
62.0299 -2.6
62.05943 -2.6
62.08735 -2.6
62.11612 -2.6
62.14918 -2.6
62.17708 -2.6
62.21026 -2.6
62.23833 -2.6
62.27166 -2.6
62.30169 -2.6
62.33141 -2.6
62.35826 -2.6
62.38881 -2.6
62.41808 -2.6
62.4505 -2.6
62.47858 -2.6
62.51191 -2.6
62.54215 -2.6
62.57256 -2.6
62.60454 -2.6
62.63725 -2.6
62.66753 -2.6
62.70032 -2.6
62.72712 -2.6
62.75597 -2.6
62.78505 -2.6
62.81469 -2.6
62.8466 -2.6
62.87622 -2.6
62.90489 -2.6
62.93482 -2.6
62.96342 -2.6
62.99457 -2.6
63.02661 -2.6
63.05994 -2.6
63.08828 -2.6
63.11884 -2.6
63.15218 -2.6
63.18532 -2.6
63.21286 -2.6
63.24205 -2.6
63.27161 -2.6
63.29957 -2.6
63.32752 -2.6
63.35983 -2.6
63.39317 -2.6
63.42141 -2.6
63.44843 -2.6
63.48177 -2.6
63.5151 -2.6
63.54843 -2.6
63.57656 -2.6
63.60601 -2.6
63.63475 -2.6
63.66269 -2.6
63.69132 -2.6
63.72465 -2.6
63.75211 -2.6
63.77964 -2.6
63.80828 -2.6
63.84037 -2.6
63.87013 -2.6
63.90119 -2.6
63.92883 -2.6
63.95884 -2.6
63.98782 -2.6
64.01585 -2.6
64.04893 -2.6
64.07899 -2.6
64.11233 -2.6
64.14127 -2.6
64.16838 -2.6
64.19838 -2.6
64.23002 -2.6
64.25942 -2.6
64.28671 -2.6
64.31893 -2.6
64.34708 -2.6
64.38041 -2.6
64.40768 -2.6
64.44031 -2.6
64.47039 -2.6
64.49975 -2.6
64.52776 -2.6
64.55812 -2.6
64.58624 -2.6
64.61392 -2.6
64.64725 -2.6
64.6754 -2.6
64.70783 -2.6
64.73795 -2.6
64.77129 -2.6
64.80107 -2.6
64.83304 -2.6
64.86127 -2.6
64.89461 -2.6
64.92315 -2.6
64.9539 -2.6
64.98382 -2.6
65.01151 -2.6
65.04103 -2.6
65.07151 -2.6
65.10455 -2.6
65.13251 -2.6
65.16585 -2.6
65.19505 -2.6
65.22384 -2.6
65.25109 -2.6
65.28089 -2.6
65.31064 -2.6
65.34011 -2.6
65.37124 -2.6
65.40185 -2.6
65.43484 -2.6
65.46309 -2.6
65.49064 -2.6
65.52158 -2.6
65.55233 -2.6
65.5805 -2.6
65.6132 -2.6
65.64362 -2.6
65.67695 -2.6
65.70995 -2.6
65.74282 -2.6
65.77319 -2.6
65.80538 -2.6
65.83656 -2.6
65.86693 -2.6
65.90026 -2.6
65.93083 -2.6
65.95781 -2.6
65.98627 -2.6
66.01961 -2.6
66.04774 -2.6
66.07835 -2.6
66.10965 -2.6
66.13969 -2.6
66.16895 -2.6
66.1966 -2.6
66.2246 -2.6
66.25793 -2.6
66.28843 -2.6
66.31879 -2.6
66.35061 -2.6
66.382 -2.6
66.41116 -2.6
66.44057 -2.6
66.46848 -2.6
66.50085 -2.6
66.53418 -2.6
66.56663 -2.6
66.59467 -2.6
66.62349 -2.6
66.65196 -2.6
66.68298 -2.6
66.71131 -2.6
66.74406 -2.6
66.77327 -2.6
66.80239 -2.6
66.83285 -2.6
66.86618 -2.6
66.89879 -2.6
66.92769 -2.6
66.95486 -2.6
66.98383 -2.6
67.01247 -2.6
67.04165 -2.6
67.07085 -2.6
67.10083 -2.6
67.13147 -2.6
67.16278 -2.6
67.1914 -2.6
67.22005 -2.6
67.25338 -2.6
67.2844 -2.6
67.31492 -2.6
67.34825 -2.6
67.37903 -2.6
67.4087 -2.6
67.43704 -2.6
67.46846 -2.6
67.49696 -2.6
67.52979 -2.6
67.55832 -2.6
67.59076 -2.6
67.61885 -2.6
67.65218 -2.6
67.67904 -2.6
67.7103 -2.6
67.74364 -2.6
67.772 -2.6
67.80464 -2.6
67.83679 -2.6
67.86681 -2.6
67.89735 -2.6
67.92635 -2.6
67.95589 -2.6
67.98711 -2.6
68.01637 -2.6
68.04662 -2.6
68.0795 -2.6
68.11262 -2.6
68.14532 -2.6
68.17214 -2.6
68.20451 -2.6
68.23784 -2.6
68.26738 -2.6
68.2946 -2.6
68.32793 -2.6
68.35684 -2.6
68.38953 -2.6
68.41854 -2.6
68.45007 -2.6
68.481 -2.6
68.51433 -2.6
68.54597 -2.6
68.57648 -2.6
68.60522 -2.6
68.63509 -2.6
68.6644 -2.6
68.69773 -2.6
68.72601 -2.6
68.75506 -2.6
68.78333 -2.6
68.81666 -2.6
68.84745 -2.6
68.87587 -2.6
68.90717 -2.6
68.9405 -2.6
68.96931 -2.6
69.00264 -2.6
69.03077 -2.6
69.05978 -2.6
69.09216 -2.6
69.12096 -2.6
69.14974 -2.6
69.17844 -2.6
69.20966 -2.6
69.23735 -2.6
69.26761 -2.6
69.29568 -2.6
69.3281 -2.6
69.35626 -2.6
69.38306 -2.6
69.41639 -2.6
69.44972 -2.6
69.48215 -2.6
69.51472 -2.6
69.54591 -2.6
69.57585 -2.6
69.60781 -2.6
69.64114 -2.6
69.672 -2.6
69.70243 -2.6
69.73071 -2.6
69.76166 -2.6
69.79258 -2.6
69.82288 -2.6
69.85621 -2.6
69.88454 -2.6
69.91438 -2.6
69.94772 -2.6
69.97974 -2.6
70.00758 -2.6
70.03619 -2.6
70.066 -2.6
70.09904 -2.6
70.13157 -2.6
70.16127 -2.6
70.19106 -2.6
70.22074 -2.6
70.25149 -2.6
70.28255 -2.6
70.31216 -2.6
70.33974 -2.6
70.36729 -2.6
70.39699 -2.6
70.42578 -2.6
70.45615 -2.6
70.48949 -2.6
70.52001 -2.6
70.55334 -2.6
70.58232 -2.6
70.61387 -2.6
70.64423 -2.6
70.67348 -2.6
70.70162 -2.6
70.72885 -2.6
70.75831 -2.6
70.78836 -2.6
70.82169 -2.6
70.84848 -2.6
70.87817 -2.6
70.91151 -2.6
70.94112 -2.6
70.9673 -2.6
70.99698 -2.6
71.02748 -2.6
71.05871 -2.6
71.0863 -2.6
71.11964 -2.6
71.15158 -2.6
71.18295 -2.6
71.21009 -2.6
71.24084 -2.6
71.27023 -2.6
71.29893 -2.6
71.32877 -2.6
71.3585 -2.6
71.39063 -2.6
71.4203 -2.6
71.45269 -2.6
71.48559 -2.6
71.51626 -2.6
71.54526 -2.6
71.57585 -2.6
71.60592 -2.6
71.63925 -2.6
71.66814 -2.6
71.70148 -2.6
71.73384 -2.6
71.76551 -2.6
71.79314 -2.6
71.82542 -2.6
71.85544 -2.6
71.88877 -2.6
71.91735 -2.6
71.94885 -2.6
71.97742 -2.6
72.00792 -2.6
72.03799 -2.6
72.0697 -2.6
72.09853 -2.6
72.13103 -2.6
72.16167 -2.6
72.19006 -2.6
72.22107 -2.6
72.25164 -2.6
72.28291 -2.6
72.31514 -2.6
72.3439 -2.6
72.37724 -2.6
72.41057 -2.6
72.43893 -2.6
72.46946 -2.6
72.50273 -2.6
72.53128 -2.6
72.55879 -2.6
72.58801 -2.6
72.61817 -2.6
72.64612 -2.6
72.67561 -2.6
72.70895 -2.6
72.74228 -2.6
72.77549 -2.6
72.80479 -2.6
72.83446 -2.6
72.86391 -2.6
72.89233 -2.6
72.91937 -2.6
72.9481 -2.6
72.98038 -2.6
73.01372 -2.6
73.04313 -2.6
73.07461 -2.6
73.10367 -2.6
73.13446 -2.6
73.16408 -2.6
73.1962 -2.6
73.2286 -2.6
73.25748 -2.6
73.28613 -2.6
73.31705 -2.6
73.35038 -2.6
73.38371 -2.6
73.41179 -2.6
73.44022 -2.6
73.47356 -2.6
73.50285 -2.6
73.53413 -2.6
73.56238 -2.6
73.5954 -2.6
73.6244 -2.6
73.65773 -2.6
73.68649 -2.6
73.71886 -2.6
73.74712 -2.6
73.77592 -2.6
73.80926 -2.6
73.83981 -2.6
73.86861 -2.6
73.90167 -2.6
73.93044 -2.6
73.96258 -2.6
73.99026 -2.6
74.01726 -2.6
74.04875 -2.6
74.07749 -2.6
74.10593 -2.6
74.13345 -2.6
74.16679 -2.6
74.1949 -2.6
74.22228 -2.6
74.25316 -2.6
74.28319 -2.6
74.31097 -2.6
74.34322 -2.6
74.37341 -2.6
74.40332 -2.6
74.43462 -2.6
74.4649 -2.6
74.49306 -2.6
74.52579 -2.6
74.55386 -2.6
74.58167 -2.6
74.60948 -2.6
74.64261 -2.6
74.67594 -2.6
74.70629 -2.6
74.73547 -2.6
74.76741 -2.6
74.80074 -2.6
74.82928 -2.6
74.85641 -2.6
74.88686 -2.6
74.91969 -2.6
74.94857 -2.6
74.97591 -2.6
75.00925 -2.6
75.03704 -2.6
75.06875 -2.6
75.1006 -2.6
75.12942 -2.6
75.16035 -2.6
75.18874 -2.6
75.21482 -2.6
75.24697 -2.6
75.2767 -2.6
75.30656 -2.6
75.33646 -2.6
75.36803 -2.6
75.40137 -2.6
75.43441 -2.6
75.46207 -2.6
75.49155 -2.6
75.52063 -2.6
75.55396 -2.6
75.58422 -2.6
75.61301 -2.6
75.64314 -2.6
75.66996 -2.6
75.69695 -2.6
75.72998 -2.6
75.75817 -2.6
75.7915 -2.6
75.82155 -2.6
75.8508 -2.6
75.88068 -2.6
75.90884 -2.6
75.93637 -2.6
75.96695 -2.6
76.00028 -2.6
76.03049 -2.6
76.05939 -2.6
76.09098 -2.6
76.12431 -2.6
76.15282 -2.6
76.18307 -2.6
76.21642 -2.6
76.2453 -2.6
76.27329 -2.6
76.30576 -2.6
76.33772 -2.6
76.36889 -2.6
76.4 -2.6
76.4274 -2.6
76.46014 -2.6
76.49348 -2.6
76.52471 -2.6
76.55266 -2.6
76.58599 -2.6
76.61475 -2.6
76.6474 -2.6
76.6742 -2.6
76.70564 -2.6
76.73653 -2.6
76.76928 -2.6
76.79654 -2.6
76.82589 -2.6
76.85815 -2.6
76.89149 -2.6
76.91979 -2.6
76.95106 -2.6
76.9826 -2.6
77.01595 -2.6
77.0447 -2.6
77.07639 -2.6
77.10528 -2.6
77.13861 -2.6
77.16611 -2.6
77.19845 -2.6
77.22804 -2.6
77.25986 -2.6
77.28656 -2.6
77.31989 -2.6
77.34882 -2.6
77.37737 -2.6
77.40995 -2.6
77.44244 -2.6
77.47243 -2.6
77.50071 -2.6
77.53252 -2.6
77.56141 -2.6
77.58978 -2.6
77.61786 -2.6
77.64935 -2.6
77.68204 -2.6
77.71206 -2.6
77.74094 -2.6
77.76892 -2.6
77.80174 -2.6
77.82996 -2.6
77.85793 -2.6
77.89126 -2.6
77.92158 -2.6
77.9543 -2.6
77.98763 -2.6
78.01836 -2.6
78.04703 -2.6
78.08036 -2.6
78.10899 -2.6
78.14118 -2.6
78.16911 -2.6
78.19792 -2.6
78.22613 -2.6
78.25345 -2.6
78.28432 -2.6
78.31471 -2.6
78.34512 -2.6
78.3745 -2.6
78.40685 -2.6
78.43635 -2.6
78.46968 -2.6
78.49692 -2.6
78.52648 -2.6
78.55669 -2.6
78.58929 -2.6
78.61906 -2.6
78.65123 -2.6
78.68188 -2.6
78.71276 -2.6
78.74367 -2.6
78.77284 -2.6
78.80569 -2.6
78.83695 -2.6
78.86436 -2.6
78.89548 -2.6
78.92852 -2.6
78.96149 -2.6
78.99087 -2.6
79.0242 -2.6
79.05286 -2.6
79.0862 -2.6
79.11953 -2.6
79.14816 -2.6
79.18081 -2.6
79.20921 -2.6
79.23568 -2.6
79.26427 -2.6
79.29227 -2.6
79.32076 -2.6
79.35114 -2.6
79.38382 -2.6
79.41332 -2.6
79.44375 -2.6
79.47059 -2.6
79.50034 -2.6
79.53367 -2.6
79.5622 -2.6
79.59554 -2.6
79.62624 -2.6
79.65737 -2.6
79.68575 -2.6
79.71715 -2.6
79.74602 -2.6
79.77662 -2.6
79.80962 -2.6
79.83926 -2.6
79.86777 -2.6
79.89719 -2.6
79.92808 -2.6
79.96107 -2.6
79.99244 -2.6
80.02022 -2.6
80.04932 -2.6
80.08265 -2.6
80.11017 -2.6
80.14008 -2.6
80.17042 -2.6
80.19965 -2.6
80.23006 -2.6
80.25999 -2.6
80.29028 -2.6
80.32362 -2.6
80.35677 -2.6
80.38556 -2.6
80.41441 -2.6
80.44186 -2.6
80.47157 -2.6
80.50069 -2.6
80.53402 -2.6
80.56125 -2.6
80.59379 -2.6
80.62712 -2.6
80.65508 -2.6
80.68235 -2.6
80.7155 -2.6
80.74697 -2.6
80.77393 -2.6
80.80428 -2.6
80.83447 -2.6
80.8677 -2.6
80.89614 -2.6
80.92799 -2.6
80.95759 -2.6
80.98612 -2.6
81.01945 -2.6
81.047 -2.4
81.07768 -2.4
81.10705 -2.4
81.13696 -2.4
81.16373 -2.4
81.19706 -2.4
81.23039 -2.4
81.25867 -2.4
81.28948 -2.4
81.32003 -2.4
81.35216 -2.4
81.37998 -2.4
81.40895 -2.4
81.43999 -2.4
81.4705 -2.4
81.49824 -2.4
81.52903 -2.4
81.55754 -2.4
81.59087 -2.4
81.62242 -2.4
81.65078 -2.4
81.68029 -2.4
81.71241 -2.4
81.74349 -2.4
81.77517 -2.4
81.8085 -2.4
81.83754 -2.4
81.87087 -2.4
81.90421 -2.4
81.93754 -2.4
81.96859 -2.4
81.99863 -2.4
82.02602 -2.4
82.05733 -2.4
82.08546 -2.4
82.11536 -2.4
82.14437 -2.4
82.17699 -2.4
82.21033 -2.4
82.24178 -2.4
82.27082 -2.4
82.30238 -2.4
82.33572 -2.4
82.36905 -2.4
82.39805 -2.4
82.42747 -2.4
82.45573 -2.4
82.48315 -2.4
82.51649 -2.4
82.54572 -2.4
82.57746 -2.4
82.6099 -2.4
82.63691 -2.4
82.67024 -2.4
82.69926 -2.4
82.7326 -2.4
82.75918 -2.4
82.78852 -2.4
82.82185 -2.4
82.85108 -2.4
82.88441 -2.4
82.91636 -2.4
82.94889 -2.4
82.97777 -2.4
83.01019 -2.4
83.03865 -2.4
83.06681 -2.4
83.0954 -2.4
83.12212 -2.4
83.15545 -2.4
83.18811 -2.4
83.21852 -2.4
83.25002 -2.4
83.28014 -2.4
83.31059 -2.4
83.33983 -2.4
83.36769 -2.4
83.40014 -2.4
83.42966 -2.4
83.46259 -2.4
83.49592 -2.4
83.526 -2.4
83.55933 -2.4
83.58617 -2.4
83.61454 -2.4
83.64595 -2.4
83.67518 -2.4
83.70352 -2.4
83.73343 -2.4
83.76237 -2.4
83.7944 -2.4
83.82526 -2.4
83.8586 -2.4
83.88843 -2.4
83.91757 -2.4
83.94512 -2.4
83.97723 -2.4
84.00827 -2.4
84.03797 -2.4
84.07131 -2.4
84.10176 -2.4
84.13488 -2.4
84.1655 -2.4
84.19539 -2.4
84.22432 -2.4
84.25249 -2.4
84.28445 -2.4
84.31694 -2.4
84.34698 -2.4
84.38028 -2.4
84.41286 -2.4
84.44215 -2.4
84.47018 -2.4
84.50351 -2.4
84.53684 -2.4
84.56461 -2.4
84.59328 -2.4
84.62661 -2.4
84.65842 -2.4
84.69176 -2.4
84.71986 -2.4
84.7506 -2.4
84.7839 -2.4
84.81361 -2.4
84.8417 -2.4
84.87 -2.4
84.90018 -2.4
84.93311 -2.4
84.95991 -2.4
84.99158 -2.4
85.02389 -2.4
85.05479 -2.4
85.08344 -2.4
85.11619 -2.4
85.14815 -2.4
85.17882 -2.4
85.20579 -2.4
85.2386 -2.4
85.26717 -2.4
85.29726 -2.4
85.33059 -2.4
85.36392 -2.4
85.39691 -2.4
85.43024 -2.4
85.45935 -2.4
85.49191 -2.4
85.52257 -2.4
85.55006 -2.4
85.58339 -2.4
85.61672 -2.4
85.65005 -2.4
85.68339 -2.4
85.71325 -2.4
85.74612 -2.4
85.77946 -2.4
85.80763 -2.4
85.83902 -2.4
85.86772 -2.4
85.89816 -2.4
85.92736 -2.4
85.95693 -2.4
85.98576 -2.4
86.01909 -2.4
86.04859 -2.4
86.07764 -2.4
86.11097 -2.4
86.14066 -2.4
86.17117 -2.4
86.2 -2.4
86.23275 -2.4
86.26383 -2.4
86.29716 -2.4
86.32712 -2.4
86.36045 -2.4
86.39223 -2.4
86.4225 -2.4
86.44922 -2.4
86.48016 -2.4
86.51161 -2.4
86.53976 -2.4
86.56692 -2.4
86.59722 -2.4
86.63055 -2.4
86.66389 -2.4
86.69096 -2.4
86.72197 -2.4
86.75508 -2.4
86.78465 -2.4
86.81298 -2.4
86.84383 -2.4
86.87274 -2.4
86.90281 -2.4
86.9304 -2.4
86.96374 -2.4
86.99707 -2.4
87.02392 -2.4
87.05546 -2.4
87.08779 -2.4
87.11631 -2.4
87.14514 -2.4
87.17243 -2.4
87.20325 -2.4
87.23658 -2.4
87.26758 -2.4
87.2987 -2.4
87.33203 -2.4
87.36536 -2.4
87.39688 -2.4
87.42342 -2.4
87.45616 -2.4
87.48552 -2.4
87.51364 -2.4
87.54275 -2.4
87.57101 -2.4
87.59989 -2.4
87.63311 -2.4
87.66236 -2.4
87.69144 -2.4
87.72177 -2.4
87.7551 -2.4
87.78203 -2.4
87.81061 -2.4
87.83913 -2.4
87.86803 -2.4
87.89707 -2.4
87.92545 -2.4
87.95879 -2.4
87.99212 -2.4
88.01833 -2.4
88.04671 -2.4
88.07542 -2.4
88.10456 -2.4
88.13228 -2.4
88.1604 -2.4
88.18842 -2.4
88.21937 -2.4
88.2513 -2.4
88.28464 -2.4
88.31522 -2.4
88.34774 -2.4
88.37576 -2.4
88.40582 -2.4
88.43723 -2.4
88.47057 -2.4
88.4978 -2.4
88.53031 -2.4
88.56037 -2.4
88.5937 -2.4
88.61991 -2.4
88.64884 -2.4
88.68217 -2.4
88.71141 -2.4
88.74142 -2.4
88.77151 -2.4
88.80253 -2.4
88.83437 -2.4
88.86608 -2.4
88.89941 -2.4
88.9291 -2.4
88.96243 -2.4
88.99577 -2.4
89.02734 -2.4
89.05573 -2.4
89.08378 -2.4
89.11295 -2.4
89.14484 -2.4
89.17817 -2.4
89.20811 -2.4
89.24067 -2.4
89.27156 -2.4
89.3036 -2.4
89.33694 -2.4
89.36765 -2.4
89.39761 -2.4
89.43095 -2.4
89.46076 -2.4
89.4903 -2.4
89.51895 -2.4
89.55228 -2.4
89.58111 -2.4
89.60806 -2.4
89.64139 -2.4
89.66948 -2.4
89.69914 -2.4
89.73088 -2.4
89.75941 -2.4
89.78877 -2.4
89.81681 -2.4
89.84539 -2.4
89.87522 -2.4
89.90855 -2.4
89.94189 -2.4
89.97099 -2.4
90.00196 -2.4
90.03047 -2.4
90.06095 -2.4
90.09084 -2.4
90.12418 -2.4
90.15751 -2.4
90.18513 -2.4
90.21169 -2.4
90.24293 -2.4
90.27081 -2.4
90.30415 -2.4
90.33379 -2.4
90.36258 -2.4
90.39093 -2.4
90.42426 -2.4
90.4576 -2.4
90.49094 -2.4
90.51993 -2.4
90.5517 -2.4
90.58195 -2.4
90.61211 -2.4
90.64357 -2.4
90.67189 -2.4
90.70079 -2.4
90.7309 -2.4
90.76179 -2.4
90.79512 -2.4
90.82793 -2.4
90.85828 -2.4
90.89059 -2.4
90.92329 -2.4
90.95091 -2.4
90.98286 -2.4
91.01534 -2.4
91.0433 -2.4
91.0696 -2.4
91.10127 -2.4
91.13456 -2.4
91.16357 -2.4
91.19564 -2.4
91.22372 -2.4
91.25678 -2.4
91.28844 -2.4
91.31706 -2.4
91.34717 -2.4
91.37477 -2.4
91.40314 -2.4
91.43648 -2.4
91.46696 -2.4
91.50029 -2.4
91.53363 -2.4
91.56695 -2.4
91.59874 -2.4
91.63117 -2.4
91.66296 -2.4
91.69349 -2.4
91.72478 -2.4
91.75791 -2.4
91.78808 -2.4
91.82141 -2.4
91.85474 -2.4
91.88442 -2.4
91.91719 -2.4
91.94748 -2.4
91.97694 -2.4
92.00541 -2.4
92.03428 -2.4
92.06037 -2.4
92.09056 -2.4
92.12389 -2.4
92.15582 -2.4
92.18346 -2.4
92.21679 -2.4
92.24582 -2.4
92.27573 -2.4
92.3041 -2.4
92.33285 -2.4
92.36618 -2.4
92.39456 -2.4
92.42354 -2.4
92.45687 -2.4
92.48605 -2.4
92.51432 -2.4
92.54312 -2.4
92.57259 -2.4
92.60075 -2.4
92.63058 -2.4
92.65942 -2.4
92.68902 -2.4
92.72195 -2.4
92.74876 -2.4
92.77486 -2.4
92.805 -2.4
92.83833 -2.4
92.86939 -2.4
92.8974 -2.4
92.92612 -2.4
92.9545 -2.4
92.98262 -2.4
93.00969 -2.4
93.0428 -2.4
93.07359 -2.4
93.10474 -2.4
93.13261 -2.4
93.16594 -2.4
93.19696 -2.4
93.22466 -2.4
93.25165 -2.4
93.28413 -2.4
93.3158 -2.4
93.34784 -2.4
93.37879 -2.4
93.41116 -2.4
93.4445 -2.4
93.47783 -2.4
93.50829 -2.4
93.54162 -2.4
93.57495 -2.4
93.60581 -2.4
93.63754 -2.4
93.66634 -2.4
93.69714 -2.4
93.72635 -2.4
93.75523 -2.4
93.78505 -2.4
93.81839 -2.4
93.85087 -2.4
93.87895 -2.4
93.91059 -2.4
93.9424 -2.4
93.96966 -2.4
93.99713 -2.4
94.02588 -2.4
94.05921 -2.4
94.08752 -2.4
94.11964 -2.4
94.15298 -2.4
94.18631 -2.4
94.21463 -2.4
94.24199 -2.4
94.27532 -2.4
94.30392 -2.4
94.33218 -2.4
94.36034 -2.4
94.3897 -2.4
94.41747 -2.4
94.44597 -2.4
94.47672 -2.4
94.51005 -2.4
94.54187 -2.4
94.56927 -2.4
94.59869 -2.4
94.62811 -2.4
94.66115 -2.4
94.69049 -2.4
94.72054 -2.4
94.75145 -2.4
94.78181 -2.4
94.81356 -2.4
94.84689 -2.4
94.87959 -2.4
94.91064 -2.4
94.93827 -2.4
94.97 -2.4
94.99816 -2.4
95.02708 -2.4
95.0553 -2.4
95.08454 -2.4
95.11617 -2.4
95.1472 -2.4
95.1805 -2.4
95.20714 -2.4
95.23854 -2.4
95.2713 -2.4
95.30382 -2.4
95.33183 -2.4
95.36087 -2.4
95.39008 -2.4
95.4176 -2.4
95.44466 -2.4
95.47423 -2.4
95.50756 -2.4
95.53893 -2.4
95.56603 -2.4
95.59669 -2.4
95.62415 -2.4
95.65392 -2.4
95.68702 -2.4
95.71796 -2.4
95.74747 -2.4
95.77698 -2.4
95.80882 -2.4
95.84 -2.4
95.8731 -2.4
95.90281 -2.4
95.933 -2.4
95.96311 -2.4
95.99136 -2.4
96.02041 -2.4
96.04987 -2.4
96.08202 -2.4
96.11535 -2.4
96.14718 -2.4
96.17583 -2.4
96.20844 -2.4
96.23699 -2.4
96.27032 -2.4
96.29925 -2.4
96.32986 -2.4
96.35832 -2.4
96.38693 -2.4
96.4176 -2.4
96.44662 -2.4
96.47996 -2.4
96.50974 -2.4
96.53648 -2.4
96.56531 -2.4
96.59418 -2.4
96.62186 -2.4
96.65337 -2.4
96.68517 -2.4
96.71696 -2.4
96.74908 -2.4
96.77956 -2.4
96.81289 -2.4
96.84187 -2.4
96.87396 -2.4
96.9073 -2.4
96.93953 -2.4
96.97272 -2.4
97.00199 -2.4
97.0301 -2.4
97.06343 -2.4
97.09227 -2.4
97.11995 -2.4
97.15328 -2.4
97.18276 -2.4
97.21353 -2.4
97.24429 -2.4
97.27305 -2.4
97.30392 -2.4
97.3364 -2.15
97.36442 -2.15
97.39775 -1.7
97.42921 -0.65
97.45899 -0.65
97.49022 0.4
97.51733 0.4
97.55066 0.85
97.58399 0.85
97.61316 0.85
97.64081 0
97.67073 0
97.70406 -1.05
97.73148 -2.15
97.76481 -2.15
97.79424 -3.05
97.8233 -3.45
97.85132 -3.45
97.88457 -3.45
97.91532 -3.45
97.94513 -3.25
97.97598 -3.25
98.00364 -3.25
98.03199 -2.8
98.06084 -2.8
98.09093 -2.15
98.12104 -2.15
98.15013 -1.5
98.18172 -1.05
98.21505 -1.05
98.2423 -1.05
98.27312 -1.05
98.30645 -1.05
98.33628 -1.05
98.36283 -1.05
98.39103 -1.5
98.42436 -2.15
98.45648 -2.15
98.48981 -3.25
98.52315 -4.55
98.55223 -4.55
98.58181 -5
98.60912 -5
98.63914 -5.2
98.67248 -5
98.70087 -5
98.72812 -4.8
98.75784 -4.8
98.78901 -4.35
98.81964 -3.05
98.84991 -3.05
98.8821 -1.95
98.91544 -1.3
98.94817 -1.3
98.97728 -1.05
99.00681 -1.05
99.03862 -1.05
99.06693 -1.05
99.09726 -1.05
99.12654 -1.05
99.156 -1.05
99.18807 -1.05
99.21827 -1.05
99.24792 -1.05
99.27677 -1.05
99.30553 -1.05
99.33254 -1.05
99.36308 -1.05
99.39365 -1.05
99.42182 -1.05
99.45212 -1.05
99.48545 -1.05
99.5153 -1.05
99.54858 -1.05
99.57735 -1.05
99.60755 -1.05
99.63972 -1.05
99.67097 -1.05
99.69767 -1.05
99.731 -1.05
99.75925 -1.05
99.79259 -1.05
99.82384 -1.05
99.85448 -1.05
99.88492 -1.05
99.91631 -1.05
99.9473 -1.05
99.97801 -1.05
100.0091 -1.05
100.0374 -1.05
100.0695 -1.05
100.0983 -1.05
100.1316 -1.05
100.161 -1.05
100.1931 -1.05
100.2229 -1.05
100.2524 -1.05
100.2834 -1.05
100.3129 -1.05
100.3415 -1.05
100.3693 -1.05
100.4026 -1.05
100.4307 -1.05
100.4641 -1.05
100.4971 -1.05
100.5293 -1.05
100.5581 -1.05
100.5872 -1.05
100.6206 -1.05
100.6487 -1.05
100.6761 -1.05
100.7044 -1.05
100.7377 -1.05
100.7661 -1.05
100.796 -1.05
100.8294 -1.05
100.8624 -1.05
100.8949 -1.05
100.9217 -1.05
100.9531 -1.05
100.9829 -1.05
101.0147 -1.05
101.0424 -1.05
101.0733 -1.05
101.1067 -1.05
101.1361 -1.05
101.1694 -1.05
101.2019 -1.05
101.2307 -1.05
101.2585 -1.05
101.2873 -1.05
101.3205 -1.05
101.3493 -1.05
101.3784 -1.05
101.4047 -1.05
101.438 -1.05
101.4663 -1.05
101.4957 -1.05
101.5232 -1.05
101.5549 -1.05
101.5837 -1.05
101.6123 -1.05
101.6456 -1.05
101.6782 -1.05
101.7116 -1.05
101.7449 -1.05
101.7716 -1.05
101.8032 -1.05
101.8336 -1.05
101.8638 -1.05
101.892 -1.05
101.9254 -1.05
101.9563 -1.05
101.9845 -1.05
102.0138 -1.05
102.0466 -1.05
102.0779 -1.05
102.1085 -1.05
102.1376 -1.05
102.1692 -1.05
102.1988 -1.05
102.2263 -1.05
102.2571 -1.05
102.2879 -1.05
102.3213 -1.05
102.3528 -1.05
102.3837 -1.05
102.4112 -1.05
102.4416 -1.05
102.4725 -1.05
102.5008 -1.05
102.53 -1.05
102.5633 -1.05
102.5922 -1.05
102.6192 -1.05
102.6477 -1.05
102.6811 -1.05
102.7124 -1.05
102.7407 -1.05
102.7699 -1.05
102.8033 -1.05
102.8322 -1.05
102.8625 -1.05
102.8909 -1.05
102.9232 -1.05
102.9507 -1.05
102.9781 -1.05
103.0094 -1.05
103.0383 -1.05
103.0695 -1.05
103.0984 -1.05
103.1317 -1.05
103.164 -1.05
103.1967 -1.05
103.2263 -1.05
103.2554 -1.05
103.2887 -1.05
103.3207 -1.05
103.3524 -1.05
103.3855 -1.05
103.4175 -1.05
103.4459 -1.05
103.4732 -1.05
103.5052 -1.05
103.5333 -1.05
103.5643 -1.05
103.5952 -1.05
103.627 -1.05
103.6569 -1.05
103.685 -1.05
103.7124 -1.05
103.7455 -1.05
103.7742 -1.05
103.8031 -1.05
103.8318 -1.05
103.8615 -1.05
103.8897 -1.05
103.9208 -1.05
103.9542 -1.05
103.9873 -1.05
104.0178 -1.05
104.0456 -1.05
104.073 -1.05
104.104 -1.05
104.134 -1.05
104.1627 -1.05
104.1922 -1.05
104.2221 -1.05
104.2554 -1.05
104.2887 -1.05
104.3172 -1.05
104.3505 -1.05
104.3793 -1.05
104.4083 -1.05
104.439 -1.05
104.4696 -1.05
104.4992 -1.05
104.5298 -1.05
104.5624 -1.05
104.59 -1.05
104.6224 -1.05
104.6557 -1.05
104.6836 -1.05
104.7135 -1.05
104.7448 -1.05
104.7767 -1.05
104.8049 -1.05
104.8369 -1.05
104.8699 -1.05
104.8971 -1.05
104.9283 -1.05
104.9616 -1.05
104.9928 -1.05
105.0223 -1.05
105.0518 -1.05
105.0808 -1.05
105.1121 -1.05
105.1407 -1.05
105.1694 -1.05
105.2019 -1.05
105.2301 -1.05
105.2601 -1.05
105.29 -1.05
105.3228 -1.05
105.3522 -1.05
105.3807 -1.05
105.4128 -1.05
105.4419 -1.05
105.4707 -1.05
105.5 -1.05
105.5334 -1.05
105.5619 -1.05
105.5953 -1.05
105.6243 -1.05
105.6518 -1.05
105.6851 -1.05
105.7162 -1.05
105.7487 -1.05
105.782 -1.05
105.8105 -1.05
105.8407 -1.05
105.8684 -1.05
105.8954 -1.05
105.9248 -1.05
105.9582 -1.05
105.9873 -1.05
106.0157 -1.05
106.0474 -1.05
106.0807 -1.05
106.1103 -1.05
106.1368 -1.05
106.1695 -1.05
106.2029 -1.05
106.2328 -1.05
106.2607 -1.05
106.289 -1.05
106.3187 -1.05
106.3511 -1.05
106.3788 -1.05
106.4101 -1.05
106.4418 -1.05
106.4695 -0.85
106.5014 -0.85
106.5347 -0.85
106.5681 -0.85
106.6003 -0.65
106.6336 -0.65
106.6618 -0.4
106.6904 -0.4
106.7204 -0.2
106.7469 -0.2
106.7759 -0.2
106.8072 0.4
106.8361 0.4
106.8629 1.5
106.895 3.25
106.9228 3.25
106.9527 5.2
106.9801 5.2
107.0135 7.4
107.044 7.4
107.0714 8.5
107.1043 8.7
107.1339 8.7
107.1643 8.7
107.1941 8.7
107.2211 8.7
107.2513 8.7
107.2825 8.7
107.3158 8.95
107.3427 8.95
107.376 8.95
107.4093 9.15
107.4383 9.15
107.4658 9.15
107.4939 9.15
107.5234 9.15
107.5562 9.35
107.5863 9.35
107.6191 9.6
107.6481 10
107.6757 10
107.7091 10
107.7375 10
107.7672 10
107.7962 10
107.8271 10
107.858 10
107.8869 10
107.9175 10.25
107.9495 10.25
107.9828 10.25
108.0111 10.45
108.0383 10.7
108.0662 10.7
108.095 11.1
108.1238 11.1
108.1531 12.2
108.1822 12.2
108.2155 13.5
108.2454 14.15
108.2761 14.15
108.3053 15.05
108.3368 16.15
108.3701 16.15
108.3992 17.25
108.4267 18.75
108.4555 18.75
108.4845 19.65
108.5178 19.65
108.5449 20.75
108.5759 21.8
108.6073 21.8
108.6407 22.7
108.6714 24
108.7009 24
108.7343 25.3
108.7642 25.3
108.7944 27.3
108.8277 29.25
108.8573 29.25
108.889 30.35
108.9159 31.65
108.9459 31.65
108.9792 32.95
109.0061 32.95
109.0362 34.5
109.0654 35.6
109.098 35.6
109.1313 36.65
109.163 38.2
109.1964 38.2
109.225 39.5
109.2543 39.5
109.2816 40.4
109.3102 41.05
109.3435 41.05
109.3729 41.5
109.3997 41.5
109.4281 42.15
109.4614 42.55
109.4908 42.55
109.5178 44.1
109.5476 44.1
109.5773 45.2
109.6077 46.05
109.6368 46.05
109.6684 46.95
109.7017 46.95
109.735 47.8
109.7631 48.9
109.7946 48.9
109.8263 50
109.8572 51.3
109.8864 51.3
109.9165 52.85
109.9498 55.9
109.978 55.9
110.0051 58.3
110.0348 58.3
110.0681 61.35
110.0959 64
110.1261 64
110.1557 67.25
110.189 67.25
110.2182 70.75
110.2459 73.35
110.2766 73.35
110.3099 76.45
110.3394 76.45
110.3698 78.6
110.4032 80.8
110.4323 80.8
110.4596 83.85
110.4872 83.85
110.5168 86.7
110.5501 90.2
110.5804 90.2
110.6082 93.9
110.6393 99.8
110.668 99.8
110.7014 104.85
110.7308 104.85
110.7642 112.25
110.7964 118.6
110.8256 118.6
110.8553 123.6
110.8886 128.4
110.9205 128.4
110.9497 134.75
110.9831 139.15
111.0106 139.15
111.04 144.15
111.0682 144.15
111.0976 148.95
111.1296 152.9
111.1591 152.9
111.1885 157.9
111.2171 157.9
111.248 162.95
111.2813 167.3
111.3108 167.3
111.3406 173
111.3717 178.65
111.4021 178.65
111.4318 183.25
111.4606 183.25
111.4923 188.7
111.5216 194.85
111.5494 194.85
111.5778 199.85
111.6101 199.85
111.6434 206.2
111.675 211
111.702 211
111.7329 214.5
111.7641 214.5
111.7944 218.4
111.8212 218.4
111.8545 218.4
111.8836 218.4
111.9118 218.4
111.9422 218.4
111.9756 218.4
112.0079 218.4
112.0405 218.4
112.0704 218.4
112.1009 218.4
112.1309 218.4
112.1602 218.4
112.1885 218.4
112.2205 218.4
112.2503 218.4
112.2786 218.4
112.3112 218.4
112.3446 218.4
112.3779 218.4
112.4112 218.4
112.4388 218.4
112.4686 218.4
112.5016 218.4
112.5294 218.4
112.5572 218.4
112.5906 218.4
112.6232 218.4
112.6506 218.4
112.6788 218.4
112.7074 218.4
112.7374 218.4
112.7695 218.4
112.7979 218.4
112.8312 218.4
112.8615 218.4
112.8924 218.4
112.9205 218.4
112.9531 218.4
112.9852 218.4
113.0149 218.4
113.0468 218.4
113.0774 216
113.1057 217.35
113.1333 217.35
113.1611 218.4
113.1944 218.4
113.2238 218.4
113.253 218.4
113.2803 218.4
113.3103 217.75
113.3413 217.75
113.3735 216.65
113.4014 214.25
113.4347 214.25
113.468 212.75
113.4958 212.75
113.5222 209.45
113.5534 204.2
113.5829 204.2
113.611 194.15
113.639 194.15
113.6696 182.8
113.7006 168.85
113.7303 168.85
113.7583 162.3
113.7898 162.3
113.8191 153.3
113.8475 141.75
113.8775 141.75
113.9108 130.8
113.9405 130.8
113.9739 121.2
114.0065 109
114.0372 109
114.0677 97.6
114.1 88
114.1333 88
114.1658 77.95
114.1992 64.4
114.2296 64.4
114.2602 54.6
114.2885 54.6
114.3189 44.55
114.348 28.15
114.3793 28.15
114.4089 11.1
114.4401 11.1
114.4711 -11.75
114.4982 -18.1
114.5299 -18.1
114.5633 -19.85
114.5966 -28.15
114.6283 -28.15
114.6579 -36
114.687 -42.15
114.7167 -42.15
114.7479 -50.2
114.7785 -50.2
114.8099 -56.75
114.8433 -64
114.8723 -64
114.9016 -68.35
114.9317 -71.2
114.965 -71.2
114.9959 -76
115.0242 -76
115.0554 -81.25
115.0841 -86.9
115.1153 -86.9
115.1469 -91.05
115.177 -91.05
115.2074 -94.15
115.2367 -94.55
115.2695 -94.55
115.2986 -96.75
115.3267 -96.75
115.3563 -100.25
115.3853 -103.5
115.4157 -103.5
115.4431 -106.15
115.4709 -106.15
115.5015 -108.75
115.53 -108.75
115.5576 -112.05
115.5874 -116.2
115.6161 -116.2
115.6478 -121.2
115.6762 -121.2
115.7038 -125.35
115.7321 -129.5
115.7634 -129.5
115.7967 -133
115.8252 -133
115.8553 -135.65
115.8873 -138.25
115.9165 -138.25
115.9424 -140.2
115.971 -140.2
116.0044 -142.2
116.032 -143.5
116.0604 -143.5
116.0902 -144.6
116.1235 -144.6
116.1516 -145.45
116.1797 -146.1
116.213 -146.1
116.2434 -147.2
116.2718 -147.2
116.3027 -148.5
116.3318 -149.85
116.3617 -149.85
116.3899 -150.9
116.4167 -150.9
116.447 -151.8
116.479 -152.65
116.5064 -152.65
116.5336 -153.3
116.5638 -153.3
116.593 -154.2
116.6258 -154.85
116.6534 -154.85
116.6858 -155.75
116.7143 -155.75
116.7432 -156.6
116.7724 -156.6
116.8047 -158.15
116.8353 -159.2
116.8643 -159.2
116.8917 -159.9
116.9221 -159.9
116.9508 -160.3
116.9797 -161.85
117.0079 -161.85
117.0395 -163.8
117.0728 -163.8
117.1031 -165.35
117.1307 -166.85
117.1629 -166.85
117.1938 -168.4
117.2272 -170.35
117.2545 -170.35
117.2878 -172.75
117.3188 -172.75
117.3483 -174.3
117.3744 -176.9
117.4042 -176.9
117.4333 -180.65
117.4625 -180.65
117.4944 -183.9
117.5223 -183.9
117.5536 -186.1
117.5841 -186.95
117.6129 -186.95
117.6444 -186.95
117.6735 -186.95
117.7014 -186.95
117.7285 -186.95
117.7573 -186.95
117.7871 -186.95
117.8174 -186.95
117.8493 -186.95
117.8826 -186.95
117.9115 -186.95
117.9434 -186.95
117.9718 -186.95
118.0007 -186.95
118.0305 -186.75
118.0583 -186.75
118.0872 -185.65
118.1206 -183.9
118.1501 -183.9
118.183 -180.2
118.2121 -180.2
118.2455 -174.95
118.275 -167.75
118.308 -167.75
118.3368 -161.4
118.3683 -152.9
118.4016 -152.9
118.4317 -146.1
118.4584 -146.1
118.4917 -137.8
118.5227 -129.75
118.5527 -129.75
118.5824 -121.65
118.6107 -113.35
118.6401 -113.35
118.6734 -102.2
118.6993 -102.2
118.7279 -91.5
118.7613 -78.85
118.793 -78.85
118.8208 -65.3
118.8511 -65.3
118.8811 -45.65
118.9101 -26.4
118.9399 -26.4
118.9721 -10.9
119.0054 6.95
119.0367 6.95
119.064 14.6
119.0928 14.6
119.121 17.25
119.1515 17.25
119.1805 25.1
119.2107 36.9
119.2404 36.9
119.2718 46.95
119.3043 46.95
119.3365 58.5
119.368 66.8
119.3991 66.8
119.4296 76.65
119.463 86.05
119.495 86.05
119.5234 94.8
119.552 94.8
119.5821 101.55
119.6151 110.5
119.6452 110.5
119.6723 117.5
119.7016 117.5
119.7318 124.95
119.7617 134.3
119.7917 134.3
119.8235 142.4
119.8536 149.4
119.8829 149.4
119.9116 156.6
119.9419 156.6
119.9708 164.45
119.9987 164.45
120.0257 169.95
120.058 175.4
120.089 175.4
120.1177 178.25
120.1453 178.25
120.1741 183.7
120.2054 191.1
120.2352 191.1
120.2633 200.95
120.2926 200.95
120.3232 208.35
120.3517 208.35
120.3808 216.9
120.4117 218.4
120.4408 218.4
120.47 218.4
120.503 218.4
120.532 218.4
120.5633 218.4
120.5931 218.4
120.6237 218.4
120.6529 218.4
120.6829 218.4
120.7108 218.4
120.7397 218.4
120.7731 218.4
120.8027 218.4
120.8303 218.4
120.8573 218.4
120.8872 218.4
120.9174 218.4
120.9445 218.4
120.9772 218.4
121.0105 218.4
121.0408 218.4
121.0701 218.4
121.0994 218.4
121.1287 218.4
121.1606 218.4
121.1883 218.4
121.2146 218.4
121.243 218.4
121.2727 218.4
121.3026 218.4
121.3298 218.4
121.3603 218.4
121.39 218.4
121.4225 218.4
121.4498 218.4
121.4806 218.4
121.5097 218.4
121.5378 218.4
121.5711 218.4
121.6025 218.4
121.6331 218.4
121.6609 218.4
121.6871 218.4
121.7184 218.4
121.7477 218.4
121.7748 218.4
121.8071 218.4
121.8351 218.4
121.8651 218.4
121.8944 218.4
121.9204 218.4
121.9513 218.4
121.9801 218.4
122.0076 218.4
122.0361 218.4
122.0681 218.4
122.0984 218.4
122.1271 218.4
122.1547 218.4
122.1881 218.4
122.2165 218.4
122.2465 218.4
122.2737 218.4
122.3023 218.4
122.3323 218.4
122.3644 218.4
122.3917 218.4
122.4242 218.4
122.4553 218.4
122.4848 218.4
122.5148 218.4
122.5482 218.4
122.5815 218.4
122.6128 218.4
122.6398 218.4
122.669 218.4
122.7001 218.4
122.727 218.4
122.7545 218.4
122.7857 218.4
122.8157 218.4
122.8457 218.4
122.8759 218.4
122.9065 218.4
122.9362 218.4
122.9641 218.4
122.9951 218.4
123.0241 218.4
123.0574 218.4
123.0853 218.4
123.1122 218.4
123.1441 218.4
123.1774 218.4
123.2058 217.1
123.2327 217.1
123.2661 216.9
123.2978 217.35
123.3263 217.35
123.3541 217.55
123.3841 217.55
123.4174 217.1
123.446 215.8
123.4744 215.8
123.5052 210.8
123.5385 204.65
123.5656 204.65
123.5927 200.05
123.6239 200.05
123.6553 193.5
123.6846 193.5
123.7137 186.55
123.7437 175.8
123.7771 175.8
123.8104 163.8
123.8375 151.8
123.8668 151.8
123.8985 141.3
123.9275 141.3
123.9606 135.4
123.9888 131.9
124.0172 131.9
124.0462 128
124.0735 128
124.1026 119.45
124.1324 119.45
124.1621 110.05
124.1903 103.95
124.2179 103.95
124.2484 95
124.2804 95
124.3085 88
124.3408 78.6
124.3723 78.6
124.4057 70.1
124.439 64.65
124.4702 64.65
124.4983 59.6
124.5287 59.6
124.5562 49.55
124.5891 37.1
124.6171 37.1
124.6448 18.55
124.6718 18.55
124.7044 1.5
124.7329 1.5
124.7662 -11.1
124.7978 -13.5
124.8285 -13.5
124.8605 -13.5
124.8907 -16.15
124.9202 -16.15
124.9526 -18.55
124.9834 -18.55
125.0148 -21.6
125.0431 -23.15
125.0742 -23.15
125.1075 -23.35
125.1357 -23.35
125.1619 -23.35
125.1944 -23.35
125.2278 -23.35
125.2551 -23.35
125.2837 -24
125.3144 -24
125.3439 -25.55
125.3736 -25.55
125.4048 -27.3
125.4382 -28.6
125.4696 -28.6
125.4972 -30.55
125.5249 -30.55
125.5539 -32.5
125.5872 -35.6
125.6152 -35.6
125.647 -38.2
125.677 -38.2
125.7053 -39.95
125.7363 -42.35
125.7637 -42.35
125.7935 -44.55
125.824 -44.55
125.8559 -46.5
125.8847 -48.25
125.9164 -48.25
125.9459 -49.55
125.9742 -49.55
126.004 -50.85
126.0335 -51.55
126.0668 -51.55
126.0965 -51.75
126.1229 -51.75
126.1523 -52.6
126.1808 -53.95
126.2092 -53.95
126.2355 -55
126.2688 -55
126.3022 -55.45
126.3355 -56.1
126.3686 -56.1
126.3991 -56.1
126.4283 -56.1
126.457 -56.1
126.4903 -56.1
126.5237 -55.9
126.5535 -55.9
126.581 -55.7
126.6132 -55.7
126.6441 -54.8
126.6774 -53.95
126.7081 -53.95
126.7351 -52.2
126.7649 -52.2
126.7957 -50
126.8246 -48.25
126.8579 -48.25
126.8912 -46.05
126.9207 -44.55
126.954 -44.55
126.986 -43.25
127.0169 -42.35
127.0456 -42.35
127.0735 -41.9
127.1018 -41.9
127.1352 -41.7
127.1625 -41.7
127.1921 -41.7
127.2193 -41.7
127.2524 -41.7
127.282 -41.7
127.3091 -41.7
127.3372 -39.75
127.3694 -34.7
127.3992 -34.7
127.4297 -28.8
127.4584 -28.8
127.4915 -20.05
127.5248 -11.75
127.5534 -11.75
127.5801 -3.9
127.609 1.5
127.6412 1.5
127.6704 5.85
127.6982 5.85
127.7264 6.95
127.7563 6.95
127.7852 6.75
127.8185 5.85
127.848 5.85
127.8791 5.65
127.9115 5.65
127.9448 5.65
127.9731 5.65
128.0013 5.65
128.031 5.65
128.0621 5.65
128.0902 5.65
128.1185 5.65
128.1467 5.65
128.1801 5.65
128.209 5.65
128.2412 5.65
128.2693 5.85
128.2991 5.85
128.3317 5.85
128.3651 5.85
128.3935 5.85
128.4206 5.85
128.4539 5.85
128.4873 5.85
128.5156 5.45
128.5427 5.45
128.575 5
128.6038 3.9
128.6366 3.9
128.6692 2.6
128.6996 1.95
128.7287 1.95
128.7577 1.5
128.789 1.5
128.8182 1.3
128.847 1.3
128.8798 1.3
128.9058 1.3
128.9342 1.3
128.9647 1.3
128.9928 1.3
129.025 1.3
129.0552 1.3
129.0863 1.3
129.1166 1.3
129.1482 1.3
129.1775 1.3
129.2064 1.3
129.2398 1.3
129.2681 1.3
129.3015 1.3
129.329 1.3
129.3571 1.3
129.3904 1.3
129.4196 1.3
129.449 1.3
129.4794 1.3
129.5065 1.3
129.5351 1.3
129.5654 1.3
129.5964 1.3
129.6266 1.3
129.6595 1.3
129.6928 1.3
129.7217 1.3
129.7502 1.3
129.7807 1.3
129.8111 1.3
129.8392 1.3
129.8663 1.3
129.8964 1.3
129.9259 1.3
129.9576 1.3
129.9844 1.3
130.0125 1.3
130.0403 1.3
130.0711 1.3
130.0978 1.3
130.1264 1.3
130.1572 1.3
130.1862 1.3
130.2153 1.3
130.2467 1.3
130.275 1.3
130.3084 1.3
130.3374 1.3
130.3696 1.3
130.3982 1.3
130.4258 1.3
130.4592 1.3
130.4866 1.3
130.5172 1.3
130.5506 1.3
130.5784 1.3
130.6117 1.3
130.6399 1.3
130.6671 1.3
130.6972 1.3
130.7305 1.3
130.759 1.3
130.7863 1.3
130.8135 1.3
130.8423 1.3
130.8709 1.3
130.9016 1.3
130.9349 1.3
130.9641 1.3
130.9974 1.3
131.0251 1.3
131.0513 1.3
131.0837 1.3
131.1149 1.3
131.1427 1.3
131.1699 1.3
131.1977 1.3
131.2258 1.3
131.254 1.3
131.283 1.3
131.3133 1.3
131.3466 1.3
131.38 1.3
131.4074 1.3
131.4397 1.3
131.4698 1.3
131.5005 1.3
131.5274 1.3
131.5553 1.3
131.5868 1.3
131.614 1.3
131.6459 1.3
131.6741 1.3
131.7058 1.3
131.7332 1.3
131.7625 1.3
131.7902 1.3
131.8184 1.3
131.8508 1.3
131.8788 1.3
131.9085 1.3
131.9401 1.3
131.9721 1.3
131.9995 1.3
132.0289 1.3
132.0594 1.3
132.0888 1.3
132.1148 1.3
132.1474 1.3
132.1769 1.3
132.2062 1.3
132.2371 1.3
132.2672 1.3
132.2948 1.5
132.3281 1.95
132.3553 1.95
132.3845 2.6
132.414 2.6
132.4436 2.8
132.4708 2.8
132.5042 2.8
132.5375 2.4
132.5652 2.4
132.5922 1.95
132.6256 0.85
132.655 0.85
132.6845 0.2
132.7118 0.2
132.7403 -0.4
132.7736 -0.85
132.8045 -0.85
132.8331 -1.05
132.8616 -1.05
132.895 -1.05
132.9229 -1.05
132.9503 -1.05
132.9794 -1.05
133.0077 -1.05
133.035 -1.05
133.0634 -1.05
133.0965 -1.05
133.1272 -1.05
133.1575 -1.05
133.1894 -1.05
133.2215 -1.05
133.2548 -1.05
133.2882 -1.05
133.3183 -1.05
133.3495 -1.05
133.3799 -1.05
133.4094 -1.05
133.437 -1.05
133.4685 -1.05
133.4975 -1.05
133.5286 -1.05
133.5557 -1.05
133.5866 -1.05
133.6199 -1.05
133.6527 -1.05
133.6795 -1.05
133.7079 -1.05
133.7377 -1.05
133.7655 -1.05
133.797 -1.05
133.8276 -1.05
133.8567 -1.05
133.8852 -1.05
133.9137 -1.05
133.9446 -1.05
133.9737 -1.05
134.0068 -1.05
134.034 -1.05
134.0651 -1.05
134.093 -1.05
134.1232 -1.05
134.1522 -1.05
134.1855 -1.05
134.2171 -1.05
134.2451 -1.05
134.2745 -1.05
134.3077 -1.05
134.341 -1.05
134.3725 -1.05
134.4032 -1.05
134.4307 -1.05
134.4603 -1.05
134.4922 -1.05
134.5237 -1.05
134.5525 -1.05
134.5809 -1.05
134.6092 -1.05
134.6361 -1.05
134.6655 -1.05
134.6988 -1.05
134.7292 -1.05
134.7582 -1.05
134.7915 -1.05
134.8219 -1.05
134.8499 -1.05
134.8791 -1.05
134.9124 -1.05
134.9428 -1.05
134.9726 -1.05
134.9996 -1.05
135.028 -1.05
135.0567 -1.05
135.0851 -1.05
135.1185 -1.05
135.1499 -1.05
135.1797 -1.05
135.2111 -1.05
135.2403 -1.05
135.2697 -1.05
135.2993 -1.05
135.3289 -1.05
135.3581 -1.05
135.3864 -1.05
135.4197 -1.05
135.4518 -1.05
135.48 -1.05
135.5085 -1.05
135.5403 -1.05
135.57 -1.05
135.5964 -1.05
135.6295 -1.05
135.6581 -1.05
135.6861 -1.05
135.7133 -1.05
135.7461 -1.05
135.7781 -1.05
135.8093 -1.05
135.8423 -1.05
135.872 -1.05
135.9027 -1.05
135.9303 -1.05
135.9637 -1.05
135.9918 -1.05
136.0203 -1.05
136.0486 -1.05
136.082 -1.05
136.1136 -1.05
136.1433 -1.05
136.1746 -1.05
136.2075 -1.05
136.2374 -1.05
136.2666 -1.05
136.299 -1.05
136.326 -1.05
136.3562 -1.05
136.3868 -1.05
136.4178 -1.05
136.4475 -1.05
136.4808 -1.05
136.5126 -1.05
136.5423 -1.05
136.5709 -1.05
136.6025 -1.05
136.6307 -1.05
136.664 -1.05
136.6921 -1.05
136.7212 -1.05
136.754 -1.05
136.7854 -1.05
136.8111 -1.05
136.8442 -1.05
136.8735 -1.05
136.9068 -1.05
136.9344 -1.05
136.9677 -1.05
136.9965 -1.05
137.0239 -1.05
137.0526 -1.05
137.0831 -1.05
137.1164 -1.05
137.1498 -1.05
137.1815 -1.05
137.2148 -1.05
137.247 -1.05
137.2765 -1.05
137.3039 -1.05
137.3358 -1.05
137.3652 -1.05
137.3945 -1.05
137.4237 -1.05
137.4533 -1.05
137.4861 -1.05
137.5181 -1.05
137.5468 -1.05
137.5793 -1.05
137.6105 -1.05
137.6411 -1.05
137.6691 -1.05
137.7011 -1.05
137.7344 -1.05
137.7657 -1.05
137.7965 -1.05
137.8291 -1.05
137.862 -1.05
137.8933 -1.05
137.9236 -1.05
137.9549 -1.05
137.9873 -1.05
138.0199 -1.05
138.0486 -1.05
138.0819 -1.05
138.1126 -1.05
138.1449 -1.05
138.1721 -1.05
138.2054 -1.05
138.2345 -1.05
138.2678 -1.05
138.2986 -1.05
138.3272 -1.05
138.3605 -1.05
138.3904 -1.05
138.4234 -1.05
138.4516 -1.05
138.4813 -1.05
138.5131 -1.05
138.5452 -1.05
138.5774 -1.05
138.6107 -1.05
138.6441 -1.05
138.6741 -1.05
138.7074 -1.05
138.7377 -1.05
138.7692 -1.05
138.7989 -1.05
138.8292 -1.05
138.8589 -1.05
138.8884 -1.05
138.9157 -1.05
138.9438 -1.05
138.9764 -1.05
139.0072 -1.05
139.0349 -1.05
139.0682 -1.05
139.097 -1.05
139.1265 -1.05
139.1541 -1.05
139.1868 -1.05
139.2201 -1.05
139.2525 -1.05
139.2811 -1.05
139.3121 -1.05
139.3454 -1.05
139.3726 -1.05
139.4012 -1.05
139.4317 -1.05
139.4606 -1.05
139.4886 -1.05
139.5199 -1.05
139.5484 -1.05
139.5771 -1.05
139.6047 -1.05
139.6326 -1.05
139.6617 -1.05
139.6931 -1.05
139.7215 -1.05
139.7514 -1.05
139.7834 -1.05
139.8118 -1.05
139.8404 -1.05
139.8676 -1.05
139.8996 -1.05
139.9279 -1.05
139.9586 -1.05
139.9885 -1.05
140.0187 -1.05
140.052 -1.05
140.0798 -1.05
140.1094 -1.05
140.1405 -1.05
140.1697 -1.05
140.1968 -1.05
140.2273 -1.05
140.2594 -1.05
140.2888 -1.05
140.3208 -1.05
140.3467 -1.05
140.3767 -1.05
140.41 -1.05
140.4372 -1.05
140.4662 -1.05
140.4955 -1.05
140.5273 -1.05
140.5556 -1.05
140.5882 -1.05
140.6178 -1.05
140.6454 -1.05
140.6738 -1.05
140.7019 -1.05
140.7351 -1.05
140.763 -1.05
140.7902 -1.05
140.8196 -1.05
140.8472 -1.05
140.8756 -1.05
140.9031 -1.05
140.9306 -1.05
140.9585 -1.05
140.9912 -1.05
141.018 -1.05
141.0451 -1.05
141.0732 -1.05
141.1062 -1.05
141.1341 -1.05
141.1602 -1.05
141.188 -1.05
141.2162 -1.05
141.2439 -1.05
141.271 -1.05
141.3025 -1.05
141.3314 -1.05
141.3585 -1.05
141.3918 -1.05
141.4209 -1.05
141.4531 -1.05
141.4864 -1.05
141.5124 -1.05
141.5404 -1.05
141.5719 -1.05
141.6023 -1.05
141.6302 -1.05
141.6586 -1.05
141.6896 -1.05
141.72 -1.05
141.7533 -1.05
141.7811 -1.05
141.8097 -1.05
141.8431 -1.05
141.8764 -1.05
141.9042 -1.05
141.937 -1.05
141.9642 -1.05
141.9909 -1.05
142.0224 -1.05
142.0518 -1.05
142.0796 -1.05
142.1069 -1.05
142.1364 -1.05
142.1658 -1.05
142.1936 -1.05
142.2223 -1.05
142.2544 -1.05
142.2818 -1.05
142.3086 -1.05
142.3416 -1.05
142.37 -1.05
142.4034 -1.05
142.4306 -1.05
142.4579 -1.05
142.4867 -1.05
142.5156 -1.05
142.5437 -1.05
142.57 -1.05
142.5981 -1.05
142.6274 -1.05
142.6559 -1.05
142.6848 -1.05
142.713 -1.05
142.7433 -1.05
142.7753 -1.05
142.8087 -1.05
142.8374 -1.05
142.8662 -1.05
142.894 -1.05
142.9218 -1.05
142.95 -1.05
142.9819 -1.05
143.0104 -1.05
143.0401 -1.05
143.0682 -1.05
143.1015 -1.05
143.1348 -1.05
143.1653 -1.05
143.1954 -1.05
143.2238 -1.05
143.2563 -1.05
143.2828 -1.05
143.3104 -1.05
143.3397 -1.05
143.3678 -1.05
143.4001 -1.05
143.4283 -1.05
143.4583 -1.05
143.4877 -1.05
143.5151 -1.05
143.5474 -1.05
143.5761 -1.05
143.6051 -1.05
143.6369 -1.05
143.6702 -1.05
143.7035 -1.05
143.7369 -1.05
143.7702 -1.05
143.8035 -1.05
143.8369 -1.05
143.8702 -1.05
143.9035 -1.05
143.934 -1.05
143.9646 -1.05
143.9963 -1.05
144.0236 -1.05
144.0525 -1.05
144.0849 -1.05
144.1161 -1.05
144.146 -1.05
144.1774 -1.05
144.208 -1.05
144.24 -1.05
144.2664 -1.05
144.2966 -1.05
144.3299 -1.05
144.3574 -1.05
144.3863 -1.05
144.4197 -1.05
144.4473 -1.05
144.4784 -1.05
144.5057 -1.05
144.539 -1.05
144.5717 -1.05
144.6021 -1.05
144.6308 -1.05
144.662 -1.05
144.6953 -1.05
144.7242 -1.05
144.7523 -1.05
144.7821 -1.05
144.8114 -1.05
144.8391 -1.05
144.8666 -1.05
144.8999 -1.05
144.9323 -1.05
144.9597 -1.05
144.9864 -1.05
145.0198 -1.05
145.0522 -1.05
145.0809 -1.05
145.1116 -1.05
145.1397 -1.05
145.1687 -1.05
145.1974 -1.05
145.2252 -1.05
145.2534 -1.05
145.2832 -1.05
145.3121 -1.05
145.345 -1.05
145.3783 -1.05
145.4085 -1.05
145.4419 -1.05
145.4752 -1.05
145.5085 -1.05
145.5393 -1.05
145.5726 -1.05
145.606 -1.05
145.6362 -1.05
145.6672 -1.05
145.6993 -1.05
145.7275 -1.05
145.7608 -1.05
145.7916 -1.05
145.8208 -1.05
145.8479 -1.05
145.8813 -1.05
145.9146 -1.05
145.9425 -1.05
145.971 -1.05
146.0005 -1.05
146.0305 -1.05
146.0638 -1.05
146.0956 -1.05
146.1274 -1.05
146.1559 -1.05
146.1893 -1.05
146.2225 -1.05
146.2506 -1.05
146.2816 -1.05
146.3099 -1.05
146.337 -1.05
146.3693 -1.05
146.4026 -1.05
146.435 -1.05
146.4621 -1.05
146.4924 -1.05
146.522 -1.05
146.5553 -1.05
146.5842 -1.05
146.6151 -1.05
146.6446 -1.05
146.678 -1.05
146.7113 -1.05
146.7446 -1.05
146.778 -1.05
146.8055 -1.05
146.8332 -1.05
146.8665 -1.05
146.897 -1.05
146.9248 -1.05
146.9534 -1.05
146.9862 -1.05
147.0195 -1.05
147.0499 -1.05
147.082 -1.05
147.1154 -1.05
147.1448 -1.05
147.1781 -1.05
