時間[s] タイヤの舵角[deg]
0 0
0.02 -1.5
0.05333333 -1.5
0.08666666 -1.5
0.12 -1.5
0.1533333 -1.5
0.1866667 -1.5
0.22 -1.5
0.250082 -1.5
0.279059 -1.5
0.311471 -1.5
0.344104 -1.5
0.3774373 -1.5
0.4088693 -1.5
0.4382015 -1.5
0.4715348 -1.5
0.5048682 -1.5
0.5366538 -1.5
0.5699871 -1.5
0.6019716 -1.5
0.6353049 -1.5
0.6664389 -1.5
0.6982515 -1.5
0.7272506 -1.5
0.7583408 -1.5
0.7911518 -1.5
0.8198231 -1.5
0.85124 -1.5
0.8813671 -1.5
0.9094455 -1.5
0.9385992 -1.5
0.9719325 -1.5
1.001311 -1.5
1.030133 -1.5
1.061159 -1.5
1.088998 -1.5
1.122332 -1.5
1.152511 -1.5
1.183629 -1.5
1.216962 -1.5
1.249526 -1.5
1.282859 -1.5
1.312505 -1.5
1.342442 -1.5
1.372755 -1.5
1.40461 -1.5
1.437944 -1.5
1.471277 -1.5
1.50461 -1.5
1.536766 -1.5
1.5682 -1.5
1.60152 -1.5
1.631419 -1.5
1.664685 -1.5
1.693801 -1.5
1.72382 -1.5
1.75292 -1.5
1.786253 -1.5
1.817366 -1.5
1.849524 -1.5
1.882857 -1.5
1.914166 -1.5
1.944051 -1.5
1.974279 -1.5
2.004128 -1.5
2.034336 -1.5
2.067669 -1.5
2.099097 -1.5
2.130377 -1.5
2.163711 -1.5
2.192608 -1.5
2.225941 -1.5
2.259274 -1.5
2.289593 -1.5
2.320815 -1.5
2.351586 -1.5
2.381726 -1.5
2.414112 -1.5
2.444552 -1.5
2.476242 -1.5
2.506748 -1.5
2.53993 -1.5
2.571616 -1.5
2.601545 -1.5
2.632845 -1.5
2.666123 -1.5
2.697183 -1.5
2.730516 -1.5
2.763849 -1.5
2.792111 -1.5
2.821519 -1.5
2.854138 -1.5
2.885792 -1.5
2.919125 -1.5
2.952458 -1.5
2.985182 -1.5
3.016503 -1.5
3.047517 -1.5
3.078426 -1.5
3.111759 -1.5
3.144685 -1.5
3.178018 -1.5
3.209285 -1.5
3.242619 -1.5
3.272604 -1.5
3.302847 -1.5
3.332028 -1.5
3.363806 -1.5
3.39259 -1.5
3.425247 -1.5
3.454211 -1.5
3.484393 -1.5
3.515051 -1.5
3.548384 -1.5
3.57983 -1.5
3.610024 -1.5
3.642124 -1.5
3.675457 -1.5
3.706471 -1.5
3.734998 -1.5
3.768331 -1.5
3.799548 -1.5
3.832882 -1.5
3.862708 -1.5
3.896041 -1.5
3.92738 -1.5
3.95737 -1.5
3.989629 -1.5
4.022963 -1.5
4.054159 -1.5
4.085683 -1.5
4.115535 -1.5
4.148868 -1.5
4.176746 -1.5
4.208995 -1.5
4.242329 -1.5
4.275662 -1.5
4.308701 -1.5
4.338852 -1.5
4.372186 -1.5
4.405519 -1.5
4.434399 -1.5
4.466192 -1.5
4.495937 -1.5
4.52927 -1.5
4.560813 -1.5
4.591306 -1.5
4.621396 -1.5
4.651405 -1.5
4.683024 -1.5
4.714555 -1.5
4.74575 -1.5
4.775644 -1.5
4.806642 -1.5
4.836188 -1.5
4.869522 -1.5
4.901822 -1.5
4.935155 -1.5
4.964042 -1.5
4.992191 -1.5
5.022841 -1.5
5.052104 -1.5
5.082068 -1.5
5.115402 -1.5
5.14447 -1.5
5.172961 -1.5
5.206295 -1.5
5.23449 -1.5
5.265788 -1.5
5.298804 -1.5
5.330371 -1.5
5.363222 -1.5
5.393353 -1.5
5.426686 -1.5
5.460019 -1.5
5.493214 -1.5
5.522703 -1.5
5.55507 -1.5
5.586674 -1.5
5.616274 -1.5
5.64543 -1.5
5.678763 -1.5
5.708374 -1.5
5.739053 -1.5
5.767624 -1.5
5.797197 -1.5
5.83053 -1.5
5.862879 -1.5
5.893339 -1.5
5.924957 -1.5
5.954782 -1.5
5.987404 -1.5
6.018756 -1.5
6.051787 -1.5
6.081562 -1.5
6.114895 -1.5
6.148229 -1.5
6.180312 -1.5
6.209493 -1.5
6.237537 -1.5
6.27087 -1.5
6.299512 -1.5
6.330145 -1.5
6.359227 -1.5
6.39256 -1.5
6.425893 -1.5
6.458814 -1.5
6.491889 -1.5
6.52097 -1.5
6.55162 -1.5
6.58279 -1.5
6.612098 -1.5
6.643712 -1.5
6.677031 -1.5
6.708728 -1.5
6.737958 -1.5
6.769301 -1.5
6.802634 -1.5
6.835887 -1.5
6.867799 -1.5
6.899626 -1.5
6.932055 -1.5
6.965388 -1.5
6.998722 -1.5
7.0313 -1.5
7.064633 -1.5
7.097966 -1.5
7.127043 -1.5
7.156653 -1.5
7.189987 -1.5
7.219429 -1.5
7.250221 -1.5
7.279672 -1.5
7.309208 -1.5
7.338974 -1.5
7.370195 -1.5
7.400893 -1.5
7.432384 -1.5
7.464032 -1.5
7.495202 -1.5
7.526392 -1.5
7.557103 -1.5
7.589071 -1.5
7.618842 -1.5
7.649118 -1.5
7.681276 -1.5
7.712567 -1.5
7.742383 -1.5
7.771658 -1.5
7.801937 -1.5
7.831256 -1.5
7.863745 -1.5
7.897079 -1.5
7.927291 -1.5
7.957166 -1.5
7.987185 -1.5
8.020518 -1.5
8.052924 -1.5
8.085734 -1.5
8.115967 -1.5
8.148056 -1.5
8.181389 -1.5
8.213392 -1.5
8.243197 -1.5
8.272155 -1.5
8.301084 -1.5
8.329835 -1.5
8.359987 -1.5
8.392722 -1.5
8.423204 -1.5
8.454979 -1.5
8.487598 -1.5
8.518748 -1.5
8.548153 -1.5
8.581486 -1.5
8.612342 -1.5
8.642894 -1.5
8.676228 -1.5
8.70956 -1.5
8.741831 -1.5
8.772628 -1.5
8.802625 -1.5
8.831509 -1.5
8.864841 -1.5
8.895444 -1.5
8.927122 -1.5
8.956529 -1.5
8.989861 -1.5
9.019804 -1.5
9.050615 -1.5
9.083948 -1.5
9.117282 -1.5
9.150615 -1.5
9.179233 -1.5
9.211432 -1.5
9.240749 -1.5
9.268312 -1.5
9.298841 -1.5
9.328598 -1.5
9.356883 -1.5
9.385144 -1.5
9.41363 -1.5
9.445346 -1.5
9.47868 -1.5
9.508242 -1.5
9.540734 -1.5
9.572556 -1.5
9.604115 -1.5
9.636229 -1.5
9.669229 -1.5
9.701111 -1.5
9.730865 -1.5
9.764198 -1.5
9.794069 -1.5
9.827403 -1.5
9.857015 -1.5
9.886729 -1.5
9.920063 -1.5
9.950697 -1.5
9.980483 -1.5
10.00956 -1.5
10.04057 -1.5
10.07058 -1.5
10.10097 -1.5
10.13321 -1.5
10.1635 -1.5
10.19594 -1.5
10.22741 -1.5
10.26074 -1.5
10.29407 -1.5
10.32741 -1.5
10.35779 -1.5
10.38971 -1.5
10.42082 -1.5
10.45238 -1.5
10.48317 -1.5
10.51423 -1.5
10.54756 -1.5
10.57839 -1.5
10.60879 -1.5
10.64213 -1.5
10.67546 -1.5
10.70773 -1.5
10.74086 -1.5
10.7714 -1.5
10.79888 -1.5
10.83222 -1.5
10.86555 -1.5
10.89888 -1.5
10.92958 -1.5
10.95891 -1.5
10.99225 -1.5
11.0218 -1.5
11.05221 -1.5
11.08458 -1.5
11.11791 -1.5
11.15124 -1.5
11.18362 -1.5
11.21288 -1.5
11.24076 -1.5
11.27409 -1.5
11.30742 -1.5
11.33476 -1.5
11.36322 -1.5
11.39221 -1.5
11.42047 -1.5
11.45353 -1.5
11.48687 -1.5
11.5202 -1.5
11.55353 -1.5
11.58574 -1.5
11.61524 -1.5
11.64857 -1.5
11.6819 -1.5
11.71524 -1.5
11.74762 -1.5
11.77792 -1.5
11.81125 -1.5
11.84334 -1.5
11.87208 -1.5
11.90271 -1.5
11.93276 -1.5
11.96609 -1.5
11.99942 -1.5
12.02864 -1.5
12.05817 -1.5
12.08731 -1.5
12.12065 -1.5
12.15163 -1.5
12.18111 -1.5
12.21288 -1.5
12.24622 -1.3
12.27955 -1.3
12.31111 -1.3
12.34444 -1.05
12.3734 -0.85
12.40673 -0.85
12.44007 -0.85
12.46992 -0.85
12.50178 -0.85
12.53284 -0.85
12.56383 -0.85
12.59716 -0.85
12.62898 -0.85
12.66153 -0.85
12.69455 -0.85
12.72509 -0.85
12.75842 -0.85
12.79078 -0.85
12.82044 -0.85
12.8519 -0.85
12.88205 -0.85
12.91538 -0.85
12.94694 -0.85
12.97722 -0.85
13.00748 -0.85
13.03832 -0.85
13.07166 -0.85
13.09925 -0.85
13.12867 -0.85
13.15752 -0.85
13.19042 -0.85
13.22375 -0.85
13.25709 -0.85
13.2875 -0.85
13.31667 -0.85
13.35 -0.85
13.38334 -0.85
13.41667 -0.85
13.44837 -0.85
13.4817 -0.85
13.51466 -0.85
13.54799 -0.85
13.57877 -0.85
13.60949 -0.85
13.6407 -0.85
13.67174 -0.85
13.70507 -0.85
13.73722 -0.85
13.76672 -0.85
13.80006 -0.85
13.83339 -0.85
13.86672 -0.85
13.89694 -0.85
13.93027 -0.85
13.9597 -0.85
13.99037 -0.85
14.0237 -0.85
14.05246 -0.85
14.08579 -0.85
14.11613 -0.85
14.1467 -0.85
14.18003 -0.85
14.21337 -0.85
14.24387 -0.85
14.2735 -0.85
14.30463 -0.85
14.33797 -0.85
14.3677 -0.85
14.3965 -0.85
14.42983 -0.85
14.46025 -0.85
14.49358 -0.85
14.5266 -0.85
14.55914 -0.85
14.58971 -0.85
14.62162 -0.85
14.65496 -0.85
14.68498 -0.85
14.71675 -0.85
14.74946 -0.85
14.7828 -0.85
14.81613 -0.85
14.84712 -0.85
14.87861 -0.85
14.91195 -0.85
14.9403 -0.85
14.97363 -0.85
15.00696 -0.85
15.0403 -0.85
15.07363 -0.85
15.10696 -0.85
15.1403 -0.85
15.17125 -0.85
15.20441 -0.85
15.23422 -0.85
15.26587 -0.85
15.2992 -0.85
15.3321 -0.85
15.3637 -0.85
15.39507 -0.85
15.42525 -0.85
15.45858 -0.85
15.49039 -0.85
15.51982 -0.85
15.54851 -0.85
15.5808 -0.85
15.61414 -0.85
15.64713 -0.85
15.67923 -0.85
15.71065 -0.85
15.74398 -0.85
15.77732 -0.85
15.81018 -0.85
15.84065 -0.85
15.87175 -0.85
15.90241 -0.85
15.93574 -0.85
15.96907 -0.85
16.00005 -0.85
16.03046 -0.85
16.0638 -0.85
16.09713 -0.85
16.13046 -0.85
16.16031 -0.85
16.19159 -0.85
16.2249 -0.85
16.25823 -0.85
16.28872 -0.85
16.32114 -0.85
16.35448 -0.85
16.38567 -0.85
16.41901 -0.85
16.4514 -0.85
16.48274 -0.85
16.513 -0.85
16.54633 -0.85
16.57966 -0.85
16.61066 -0.85
16.64148 -0.85
16.672 -0.85
16.70305 -0.85
16.73639 -0.85
16.76594 -0.85
16.79683 -0.85
16.82865 -0.85
16.86108 -0.85
16.89441 -0.85
16.92774 -0.85
16.96108 -0.85
16.99271 -0.85
17.02531 -0.85
17.05865 -0.85
17.08942 -0.85
17.12276 -0.85
17.15609 -0.85
17.18877 -0.85
17.22211 -0.85
17.25544 -0.85
17.28393 -0.85
17.31726 -0.85
17.3506 -0.85
17.38393 -0.85
17.41726 -0.85
17.4506 -0.85
17.48393 -0.85
17.51663 -0.85
17.54996 -0.85
17.58329 -0.85
17.61283 -0.85
17.64617 -0.85
17.67518 -0.85
17.70851 -0.85
17.73818 -0.85
17.76841 -0.85
17.79927 -0.85
17.82947 -0.85
17.86281 -0.85
17.89427 -0.85
17.9254 -0.85
17.95834 -0.85
17.98962 -0.85
18.02295 -0.85
18.05629 -0.85
18.08962 -0.85
18.12053 -0.85
18.15309 -0.85
18.18643 -0.85
18.219 -0.85
18.24907 -0.85
18.2784 -0.85
18.30711 -0.85
18.34045 -0.85
18.3695 -0.85
18.40283 -0.65
18.43406 -0.65
18.46739 -0.2
18.50072 0.4
18.53406 0.4
18.56276 0.4
18.59491 0.4
18.6266 0.4
18.65994 0.4
18.69213 0.4
18.72423 0.4
18.75352 0.4
18.78335 0.4
18.81668 0.4
18.84938 0.4
18.87868 0.4
18.9073 0.2
18.93876 -0.2
18.9721 -0.2
19.00459 -0.4
19.03348 -0.4
19.06681 -0.4
19.0977 -0.4
19.13103 -0.4
19.16167 -0.4
19.195 -0.4
19.22833 -0.4
19.25857 -0.4
19.2919 -0.4
19.32377 0.2
19.3531 0.2
19.38311 1.05
19.41645 2.15
19.44978 2.15
19.48112 3.7
19.51132 4.35
19.54072 4.35
19.57406 4.8
19.60739 5.2
19.64072 5.85
19.67406 5.85
19.70739 6.75
19.73705 7.6
19.77038 7.6
19.80064 7.85
19.82825 8.05
19.85717 8.05
19.8905 8.05
19.92384 8.05
19.95568 8.05
19.98699 8.5
20.01769 9.35
20.05102 9.35
20.08436 10.7
20.11543 11.55
20.14786 11.55
20.17798 12.2
20.21063 12.2
20.24397 12.2
20.27451 12.2
20.30366 12.45
20.33699 12.45
20.36787 12.45
20.40121 12.45
20.431 12.45
20.46049 12.45
20.49189 12.45
20.52522 12.45
20.55856 12.45
20.58722 12.45
20.61823 12.45
20.64997 12.2
20.67981 12.2
20.71314 12.2
20.74397 12.2
20.77327 12.2
20.80272 12.2
20.83179 12.2
20.86512 12.2
20.89845 12.2
20.92846 12.45
20.95722 12.45
20.98728 12.85
21.02061 13.3
21.05007 13.3
21.07975 13.75
21.11309 13.75
21.14429 13.95
21.17763 13.95
21.20935 13.95
21.2423 14.15
21.27238 14.6
21.30422 14.6
21.33756 14.85
21.36805 15.05
21.40138 15.05
21.4313 15.25
21.46463 15.7
21.49796 16.15
21.5313 16.15
21.56155 16.6
21.59488 16.6
21.62473 16.8
21.65806 16.8
21.69139 16.8
21.72213 16.8
21.75176 16.8
21.78509 16.8
21.81843 16.8
21.84854 17
21.8784 17
21.91022 17.45
21.94346 18.1
21.97679 18.1
22.00631 18.75
22.03631 19.65
22.06591 19.65
22.09809 20.5
22.13143 21.6
22.16406 21.6
22.19366 22.5
22.227 23.15
22.25705 23.15
22.29038 23.8
22.32162 24.2
22.352 24.2
22.38534 25.1
22.41867 25.55
22.452 25.55
22.48533 25.95
22.51867 26.2
22.552 26.2
22.58533 26.4
22.61867 26.85
22.652 27.3
22.68139 27.3
22.71068 27.95
22.74401 28.8
22.77734 28.8
22.81068 29.7
22.84147 30.35
22.87015 30.35
22.90348 31
22.93682 31.2
22.96801 31.2
22.99871 31.45
23.03028 31.45
23.06346 31.45
23.09679 31.65
23.12736 31.65
23.15921 32.1
23.18917 32.3
23.22069 32.3
23.25402 32.95
23.28523 33.6
23.31459 33.6
23.34403 34.25
23.37589 34.7
23.40922 34.7
23.43827 35.6
23.47161 36.25
23.50494 36.25
23.53489 36.9
23.56822 38
23.59923 38
23.63207 39.1
23.66378 39.95
23.69365 39.95
23.72698 40.8
23.75921 41.5
23.78984 41.5
23.81978 42.35
23.85206 42.35
23.88539 42.8
23.91867 42.8
23.95201 42.8
23.9814 42.8
24.01312 42.8
24.04645 42.8
24.0757 42.8
24.10617 42.8
24.1361 42.8
24.16736 42.55
24.20069 42.15
24.23078 42.15
24.2601 41.05
24.29334 41.05
24.32443 40.4
24.35776 40.4
24.3911 40.6
24.42317 40.6
24.45303 41.05
24.48372 41.9
24.51705 41.9
24.55039 43.25
24.58372 45
24.61333 45
24.64398 46.5
24.67731 48.05
24.71065 48.05
24.74398 49.35
24.77414 49.8
24.80477 49.8
24.83811 49.35
24.87144 48.9
24.90477 48.9
24.93678 48.45
24.97011 48.45
25.00344 48.45
25.03523 48.45
25.06448 48.45
25.09781 48.45
25.12822 48.7
25.16155 49.15
25.19085 49.15
25.2206 50
25.25369 51.1
25.28519 51.1
25.31852 52.6
25.35062 53.7
25.38149 53.7
25.41362 55.25
25.44695 57
25.48029 57
25.5099 58.5
25.54252 59.85
25.57585 59.85
25.60918 60.25
25.64252 60.25
25.67513 60.25
25.70847 60.5
25.7418 60.7
25.77146 60.7
25.80479 61.35
25.83443 61.8
25.8642 61.8
25.89753 62.45
25.93086 63.55
25.9642 64.65
25.99671 64.65
26.02724 66.15
26.06057 66.15
26.09359 67.7
26.12693 69.9
26.15714 69.9
26.18643 71.85
26.21681 72.95
26.25015 72.95
26.28348 73.8
26.31372 74.25
26.34706 74.25
26.38039 74.25
26.40986 74.25
26.44319 74.25
26.47653 74.25
26.50941 74.25
26.54275 74.25
26.57303 74.25
26.60637 74.25
26.63643 74.25
26.66647 74.25
26.69836 74.25
26.73011 74.9
26.76345 74.9
26.79625 75.55
26.82637 76.65
26.8597 76.65
26.89304 77.75
26.92637 78.6
26.9597 78.6
26.98844 79.95
27.02158 81.45
27.05124 81.45
27.08457 82.75
27.11379 83.65
27.14338 83.65
27.17334 83.85
27.20668 83.85
27.24001 83.85
27.2708 83.85
27.30413 83.85
27.33353 83.85
27.36687 83.85
27.4002 84.3
27.43353 84.3
27.46687 85.15
27.5002 86.25
27.5323 87.55
27.56563 87.55
27.59883 88.9
27.63123 90.2
27.66457 90.2
27.69544 91.05
27.72878 92.15
27.76071 92.15
27.7901 92.8
27.82073 92.8
27.85368 93.45
27.88702 94.15
27.91988 94.35
27.95321 94.35
27.98602 94.55
28.01884 94.55
28.05217 95
28.0855 95.2
28.11863 95.65
28.1489 95.65
28.18099 96.1
28.21432 96.75
28.24766 96.75
28.27772 97.2
28.31105 97.4
28.34439 97.4
28.37772 97.6
28.40833 97.85
28.44166 97.85
28.47406 97.85
28.50535 98.05
28.53868 98.7
28.56945 98.7
28.60169 100
28.6329 100
28.66392 101.1
28.69725 102.65
28.7259 104.15
28.75659 104.15
28.78827 105.9
28.82161 107
28.85494 107
28.88483 108.1
28.91417 109.4
28.94343 109.4
28.97559 110.3
29.00892 111.8
29.04225 111.8
29.07462 113.8
29.10585 115.95
29.13918 115.95
29.17252 117.7
29.20372 119.25
29.23568 119.25
29.26597 120.8
29.29882 121.65
29.33216 121.65
29.36539 121.65
29.39809 121.65
29.43143 121.65
29.46476 121.2
29.49809 120.55
29.53143 120.55
29.56324 119.9
29.59275 119.45
29.62427 119.45
29.65761 119.25
29.6871 119.25
29.72043 119.45
29.75377 119.9
29.7871 121
29.82043 122.95
29.85013 122.95
29.88347 125.35
29.91511 125.35
29.94664 128.2
29.97998 131.05
30.01206 131.05
30.04539 133.45
30.076 136.05
30.1067 136.05
30.14003 138.45
30.17015 141.75
30.2012 141.75
30.23132 145
30.26465 149.4
30.29799 152.9
30.33009 152.9
30.36272 156.15
30.39309 156.15
30.42642 158.8
30.45976 161.2
30.49011 163.8
30.52249 163.8
30.55408 165.1
30.58741 166.85
30.62075 166.85
30.65002 168.2
30.68124 169.25
30.71457 169.25
30.74791 171.45
30.78124 173.85
30.81265 173.85
30.84156 175.4
30.87178 177.55
30.9018 177.55
30.93514 178.45
30.96762 179.55
30.99826 179.55
31.0316 180.4
31.06217 180.85
31.0955 181.95
31.12558 181.95
31.15865 183.45
31.19198 185.2
31.22531 185.2
31.25865 186.75
31.29047 188.5
31.32117 188.5
31.3545 190.25
31.38364 190.25
31.41697 191.55
31.44864 192.2
31.4796 192.2
31.51267 192.2
31.54371 192.2
31.57704 192.2
31.60776 192.2
31.63879 192.45
31.67212 192.45
31.70311 192.45
31.73644 192.45
31.76881 192.45
31.79805 192.45
31.82869 192.65
31.86203 192.65
31.89536 193.75
31.9262 195.05
31.95855 195.05
31.98933 197
32.02266 198.55
32.056 200.05
32.08859 200.05
32.12148 201.4
32.15094 202.7
32.18037 202.7
32.2137 203.55
32.24514 204
32.274 204
32.30526 204.2
32.33754 204.2
32.37087 204.65
32.40331 205.1
32.43297 205.1
32.46241 205.75
32.49575 206.4
32.52908 206.4
32.55981 207.05
32.59315 208.15
32.62367 208.15
32.65541 209.05
32.68875 210.55
32.72138 210.55
32.75472 211.65
32.78384 212.95
32.81425 212.95
32.84758 213.85
32.87961 214.25
32.91294 214.25
32.94628 214.25
32.97656 214.25
33.00989 214.25
33.04006 214.25
33.071 214.25
33.10209 214.25
33.13542 214.25
33.16875 214.25
33.20133 214.5
33.23466 214.5
33.26479 214.7
33.29512 214.7
33.32846 215.15
33.35807 215.35
33.38884 215.35
33.42217 215.8
33.45551 215.8
33.48884 215.8
33.52035 215.8
33.55355 215.8
33.58355 215.8
33.61579 215.8
33.64912 215.8
33.68245 215.8
33.71579 215.8
33.74824 215.8
33.78157 215.8
33.81491 216.25
33.84824 216.65
33.88128 217.75
33.9107 217.75
33.94001 218.4
33.97335 218.4
34.00368 218.4
34.03701 218.2
34.06715 218.2
34.10027 218.2
34.13361 218.2
34.16694 218.2
34.19694 218.2
34.22692 218.2
34.25615 218.2
34.28948 218.2
34.32281 218.2
34.35468 218.2
34.38396 218.2
34.41401 218.2
34.44734 218.2
34.47655 218.2
34.50704 218.2
34.54037 218.2
34.57238 218.2
34.60571 218.2
34.63673 218.2
34.67006 218.2
34.7008 218.2
34.73166 218.2
34.76499 218.4
34.7952 218.2
34.8275 218.2
34.86084 218.2
34.89417 218.2
34.92751 218.2
34.96075 218.2
34.9939 218.2
35.02723 218.2
35.05718 218.2
35.09052 218.2
35.12385 218.2
35.15165 218.2
35.18499 218.2
35.21502 218.2
35.24836 218.2
35.27879 218.2
35.30912 218.2
35.33854 218.2
35.36946 218.2
35.4028 218.2
35.43142 218.4
35.46476 218.2
35.49563 218.2
35.52576 218.2
35.5591 218.2
35.58952 218.2
35.61929 218.2
35.64915 218.2
35.68013 218.2
35.71347 218.2
35.7468 218.2
35.77773 218.2
35.81107 218
35.84354 217.55
35.87687 217.55
35.90641 216.9
35.93974 216.65
35.97308 216.65
36.00291 216.9
36.03624 217.35
36.06625 217.35
36.09959 217.75
36.13005 218.4
36.16338 218.4
36.19672 218.4
36.23005 218.2
36.26079 218.2
36.29109 218.2
36.32227 218.2
36.35561 218.2
36.38553 218.2
36.41573 218.2
36.44862 218.2
36.48196 218.2
36.51529 218.2
36.54547 218.2
36.5788 218.2
36.61127 218.2
36.6431 218.2
36.67643 218.2
36.70611 218.2
36.73944 218.2
36.76966 218.2
36.80299 218.2
36.83633 218.2
36.86766 218.2
36.89976 218.2
36.92975 218.2
36.95885 218.2
36.99219 218.2
37.02187 218.2
37.05379 218.2
37.08456 218.2
37.11442 218.2
37.14775 218.2
37.18109 218.2
37.21114 218.2
37.24246 218.2
37.27362 218.2
37.30696 218.2
37.33562 218.2
37.36524 218.2
37.39523 218.2
37.42499 218.2
37.45832 218.2
37.48853 218.2
37.51746 218.2
37.54807 218.2
37.57859 218.2
37.61192 218.2
37.64298 218.2
37.67404 218.2
37.70534 218.2
37.73867 218.4
37.77201 218.4
37.80175 218.4
37.83508 218.4
37.86842 218.4
37.90079 218.4
37.93412 218.4
37.96746 218.4
37.99664 218.4
38.02579 218.4
38.05785 218.4
38.09119 218.4
38.12452 218.4
38.15785 218.4
38.19118 218.4
38.22452 218.4
38.25785 218.4
38.29119 218.4
38.32356 218.4
38.35409 218.4
38.38306 218.4
38.4164 218.4
38.44647 218.4
38.47617 218.4
38.50709 218.4
38.53727 218.4
38.57061 218.4
38.59957 218.4
38.6329 218.4
38.6649 218.4
38.69823 218.4
38.73157 218.4
38.7649 218.4
38.79475 218.4
38.82808 218.4
38.85758 218.4
38.89091 218.4
38.92424 218.4
38.95389 218.4
38.98618 218.4
39.01935 218.4
39.05269 218.4
39.08256 218.4
39.1124 218.4
39.14352 218.4
39.17503 218.4
39.20837 218.4
39.23812 218.4
39.27145 218.4
39.30172 218.4
39.33414 218.4
39.36748 218.4
39.40081 218.4
39.43415 218.4
39.46748 218.4
39.49823 218.4
39.53156 218.4
39.56265 218.4
39.59243 218.4
39.62577 218.4
39.6591 218.4
39.69243 218.4
39.72138 218.4
39.75471 218.4
39.78485 218.4
39.81818 218.4
39.85152 218.4
39.88485 218.4
39.91657 218.4
39.9495 218.4
39.98002 218.4
40.01336 218.4
40.04669 218.4
40.07771 218.4
40.10727 218.4
40.13879 218.4
40.17212 218.4
40.20096 218.4
40.23429 218.4
40.26662 218.4
40.29929 218.4
40.33262 218.4
40.364 218.4
40.3961 218.4
40.42943 218.4
40.45941 218.4
40.49274 218.4
40.52607 218.4
40.5565 218.4
40.58983 218.4
40.61944 218.4
40.65277 218.4
40.68567 218.4
40.71528 218.4
40.74861 218.4
40.78177 218.4
40.8151 218.4
40.84523 218.4
40.87724 218.4
40.90789 218.4
40.94122 218.4
40.97455 218.4
41.00788 218.4
41.03811 218.4
41.06704 218.4
41.09983 218.4
41.13316 218.4
41.16261 218.4
41.19595 218.4
41.22861 218.4
41.25916 218.4
41.29249 218.4
41.32377 218.4
41.35396 218.4
41.38338 218.4
41.41671 218.4
41.45005 218.4
41.4826 218.4
41.51297 218.4
41.5463 218.4
41.57964 218.4
41.61297 218.4
41.64227 218.4
41.67561 218.4
41.70582 218.4
41.73602 218.4
41.76936 218.4
41.80269 218.4
41.83241 218.4
41.86348 218.4
41.89579 218.4
41.92912 218.4
41.95918 218.4
41.98989 218.4
42.02323 218.4
42.05656 218.4
42.08989 218.4
42.11917 218.4
42.14978 218.4
42.18311 218.4
42.21212 218.4
42.24546 218.4
42.27584 218.4
42.30668 218.4
42.33946 218.4
42.37064 218.4
42.40397 218.4
42.4343 218.4
42.46622 218.4
42.49955 218.4
42.53289 218.4
42.56622 218.4
42.5953 218.4
42.62538 218.4
42.65871 218.4
42.68839 218.4
42.72172 218.4
42.75428 218.4
42.78762 218.4
42.82095 218.4
42.85364 218.4
42.88697 218.4
42.92031 218.4
42.95163 218.4
42.98496 218.4
43.0183 218.4
43.05163 218.4
43.08278 218.4
43.11493 218.4
43.14741 218.4
43.18074 218.4
43.21407 218.4
43.24741 218.4
43.27958 218.4
43.31159 218.4
43.34492 218.4
43.37825 218.4
43.41159 218.4
43.44492 218.4
43.47825 218.4
43.50819 218.4
43.54152 218.4
43.57485 218.4
43.6075 218.4
43.63809 218.4
43.66713 218.4
43.70047 218.4
43.7338 218.4
43.76355 218.4
43.79343 218.4
43.82571 218.4
43.85904 218.4
43.89027 218.4
43.92084 218.4
43.95418 218.4
43.98602 218.4
44.01935 218.4
44.05105 218.4
44.08128 218.4
44.11352 218.4
44.14445 218.4
44.17778 218.4
44.20708 218.4
44.23567 218.4
44.26728 218.4
44.29861 218.4
44.33194 218.4
44.36261 218.4
44.39594 218.4
44.42673 218.4
44.46006 218.4
44.49339 218.4
44.52422 218.4
44.55381 218.4
44.5838 218.4
44.61714 218.4
44.65047 218.4
44.68003 218.4
44.70876 218.4
44.73896 218.4
44.77017 218.4
44.8035 218.4
44.83463 218.4
44.86796 218.4
44.89787 218.4
44.92859 218.4
44.96193 218.4
44.99526 218.4
45.02649 218.4
45.05792 218.4
45.08792 218.4
45.12125 218.4
45.15127 218.4
45.18142 218.4
45.21121 218.4
45.24454 218.4
45.27788 218.4
45.31121 218.4
45.34455 218.4
45.37788 218.4
45.41121 218.4
45.44455 218.4
45.47422 218.4
45.50719 218.4
45.54039 218.4
45.57012 218.4
45.60345 218.4
45.63679 218.4
45.66571 218.4
45.697 218.4
45.72952 218.4
45.76285 218.4
45.79618 218.4
45.82782 218.4
45.86116 218.4
45.89243 218.4
45.92577 218.4
45.95458 218.4
45.98416 218.4
46.01459 218.4
46.04792 218.4
46.08125 218.4
46.11459 218.4
46.14394 218.4
46.17315 218.4
46.20642 218.4
46.23975 218.4
46.26964 218.4
46.29991 218.4
46.33054 218.4
46.36388 218.4
46.39721 218.4
46.42636 218.4
46.4571 218.4
46.48916 218.4
46.5225 218.4
46.55583 218.4
46.58681 218.4
46.61967 218.4
46.65169 218.4
46.68127 218.4
46.7146 218.4
46.74461 218.4
46.77484 218.4
46.80632 218.4
46.83833 218.4
46.87167 218.4
46.90126 218.4
46.93089 218.4
46.96423 218.4
46.99352 218.4
47.02685 218.4
47.05787 218.4
47.08975 218.4
47.12309 218.4
47.15642 218.4
47.18975 218.4
47.21893 218.4
47.25106 218.4
47.28425 218.4
47.31618 218.4
47.34952 218.4
47.37872 218.4
47.41206 218.4
47.44307 218.4
47.47641 218.4
47.50974 218.4
47.54308 218.4
47.57335 218.4
47.60668 218.4
47.63888 218.4
47.67221 218.4
47.70456 218.4
47.73643 218.4
47.76976 218.4
47.80309 218.4
47.83643 218.4
47.86564 218.4
47.89528 218.4
47.92587 218.4
47.95624 218.4
47.98957 218.4
48.0229 218.4
48.05363 218.4
48.08524 218.4
48.11858 218.4
48.15191 218.4
48.18504 218.4
48.21837 218.4
48.25171 218.4
48.28446 218.4
48.31779 218.4
48.3473 218.4
48.37744 218.4
48.41077 218.4
48.44054 218.4
48.47388 218.4
48.50636 218.4
48.53642 218.4
48.56767 218.4
48.601 218.4
48.63433 218.4
48.66766 218.4
48.69998 218.4
48.73331 218.4
48.76338 218.4
48.79671 218.4
48.8258 218.4
48.8561 218.4
48.88812 218.4
48.91882 218.4
48.95215 218.4
48.98548 218.4
49.01881 218.4
49.04834 218.4
49.07889 218.4
49.11222 218.4
49.14433 218.4
49.17612 218.4
49.20594 218.4
49.23667 218.4
49.27 218.4
49.30334 218.4
49.33667 218.4
49.37 218.4
49.40334 218.4
49.43667 218.4
49.4669 218.4
49.49598 218.4
49.52811 218.4
49.56144 218.4
49.59478 218.4
49.62538 218.4
49.65638 218.4
49.68909 218.4
49.71932 218.4
49.75266 218.4
49.78193 218.4
49.8133 218.4
49.84407 218.4
49.87741 218.4
49.91074 218.4
49.94407 218.4
49.97741 218.4
50.00823 218.4
50.04156 218.4
50.07489 218.4
50.10823 218.4
50.14156 218.4
50.17176 218.4
50.20387 218.4
50.2372 218.4
50.26696 218.4
50.29634 218.4
50.32864 218.4
50.36163 218.4
50.39496 218.4
50.42647 218.4
50.45659 218.4
50.48664 218.4
50.51778 218.4
50.55111 218.4
50.58072 218.4
50.61101 218.4
50.64298 218.4
50.67355 218.4
50.70689 218.4
50.73838 218.4
50.76845 218.4
50.79962 218.4
50.83268 218.4
50.86602 218.4
50.89702 218.4
50.92768 218.4
50.95809 218.4
50.98846 218.4
51.0218 218.4
51.05513 218.4
51.08846 218.4
51.11898 218.4
51.15007 218.4
51.18341 218.4
51.21363 218.4
51.24374 218.4
51.27598 218.4
51.30558 218.4
51.33891 218.4
51.36884 218.4
51.39889 218.4
51.42912 218.4
51.46141 218.4
51.49475 218.4
51.52808 218.4
51.56141 218.4
51.59232 218.4
51.62217 218.4
51.6555 218.4
51.68884 218.4
51.7206 218.4
51.75172 218.4
51.78505 218.4
51.81838 218.4
51.8499 218.4
51.87937 218.4
51.9127 218.4
51.94247 218.4
51.9758 218.4
52.00914 218.4
52.04168 218.4
52.07427 218.4
52.107 218.4
52.14034 218.4
52.17061 218.4
52.20293 218.4
52.2341 218.4
52.26532 218.4
52.29866 218.4
52.33107 218.4
52.3644 218.4
52.39473 218.4
52.42806 218.4
52.4614 218.4
52.49159 218.4
52.52342 218.4
52.55675 218.4
52.58852 218.4
52.62186 218.4
52.65519 218.4
52.68788 218.4
52.71842 218.4
52.75175 218.4
52.78508 218.4
52.81726 218.4
52.84586 218.4
52.87546 218.4
52.9074 218.4
52.94073 218.4
52.97407 218.4
53.00585 218.4
53.03743 218.4
53.07077 218.4
53.1041 218.4
53.13525 218.4
53.16602 218.4
53.19637 218.4
53.22729 218.4
53.26062 218.4
53.29144 218.4
53.32439 218.4
53.35703 218.4
53.39037 218.4
53.4237 218.4
53.45364 218.4
53.48421 218.4
53.51443 218.4
53.54776 218.4
53.5811 218.4
53.61047 218.4
53.64259 218.4
53.67592 218.4
53.70903 218.4
53.74237 218.4
53.77298 218.4
53.80221 218.4
53.83268 218.4
53.86601 218.4
53.89935 218.4
53.93268 218.4
53.96601 218.4
53.99934 218.4
54.02948 218.4
54.06281 218.4
54.09614 218.4
54.12653 218.4
54.15986 218.4
54.1932 218.4
54.22653 218.4
54.25986 218.4
54.28954 218.4
54.32108 218.4
54.35213 218.4
54.38547 218.4
54.41813 218.4
54.45146 218.4
54.48155 218.4
54.51156 218.4
54.5449 218.4
54.57657 218.4
54.60991 218.4
54.64083 218.4
54.67257 218.4
54.7059 218.4
54.73637 218.2
54.7697 218.2
54.80151 218.2
54.83484 218.2
54.86818 218.2
54.89946 218.2
54.93119 218.2
54.96452 218.2
54.99786 218.2
55.03119 218.2
55.06326 218.2
55.09625 218.2
55.12958 218.2
55.16046 218.2
55.19379 218.2
55.22348 218.2
55.25411 218.2
55.28421 217.35
55.31586 215.15
55.34919 209.7
55.38252 209.7
55.41523 202.05
55.44857 190.9
55.4819 190.9
55.51523 178.45
55.54856 160.55
55.5819 147.45
55.61187 147.45
55.64399 125.35
55.67732 107.9
55.7074 107.9
55.73926 83.85
55.77134 83.85
55.80289 62.45
55.83622 40.4
55.86955 40.4
55.89947 23.55
55.92907 6.75
55.96141 6.75
55.99475 -3.9
56.02462 -18.75
56.05795 -18.75
56.09128 -31
56.12445 -45.2
56.15778 -55.9
56.18767 -55.9
56.221 -66.4
56.25098 -78.4
56.28122 -78.4
56.31456 -88.25
56.34488 -100.9
56.37821 -100.9
56.40889 -110.95
56.44223 -122.95
56.47556 -122.95
56.50489 -133
56.53614 -133
56.56702 -144.6
56.60035 -155.5
56.63368 -162.5
56.66702 -162.5
56.69704 -167.5
56.73038 -176.7
56.76371 -176.7
56.79705 -186.95
56.82966 -199.65
56.86167 -199.65
56.89413 -208.8
56.92747 -218.4
56.9608 -218.4
56.99413 -218.4
57.02721 -218.4
57.05958 -218.4
57.09291 -218.4
57.12625 -218.4
57.1569 -218.4
57.18716 -218.4
57.2205 -218.4
57.25383 -218.4
57.28717 -218.4
57.31896 -218.4
57.35088 -218.4
57.38158 -218.4
57.41426 -218.4
57.44759 -218.4
57.48093 -218.4
57.51151 -218.4
57.54389 -218.4
57.57722 -218.4
57.61056 -218.4
57.64357 -218.4
57.67355 -218.4
57.70689 -218.4
57.73821 -218.4
57.77154 -218.4
57.80487 -218.4
57.83821 -218.4
57.87019 -218.4
57.90348 -218.4
57.93681 -218.4
57.96658 -218.4
57.99688 -218.4
58.02958 -218.4
58.06133 -218.4
58.09466 -218.4
58.12519 -218.4
58.15483 -218.4
58.18481 -218.4
58.21609 -218.4
58.24942 -218.4
58.28187 -218.4
58.31283 -218.4
58.34595 -218.4
58.37616 -218.4
58.4095 -218.4
58.44121 -218.4
58.47454 -218.4
58.50633 -218.4
58.53966 -218.4
58.57299 -218.4
58.60591 -218.4
58.63868 -218.4
58.66896 -218.4
58.7023 -218.4
58.73563 -218.4
58.76577 -218.4
58.7991 -218.4
58.82953 -218.4
58.86109 -218.4
58.89442 -218.4
58.92459 -218.4
58.95554 -218.4
58.98532 -218.4
59.01748 -218.4
59.05081 -218.4
59.08215 -218.4
59.11549 -218.4
59.14882 -218.4
59.17866 -218.4
59.21199 -218.4
59.24364 -218.4
59.27312 -218.4
59.30415 -218.4
59.33458 -218.4
59.36792 -218.4
59.39769 -218.4
59.42999 -218.4
59.46073 -218.4
59.49406 -218.4
59.5274 -218.4
59.55825 -218.4
59.58963 -218.4
59.62296 -218.4
59.65575 -218.4
59.68909 -218.4
59.7201 -218.4
59.75343 -218.4
59.78301 -218.4
59.81335 -218.4
59.84668 -218.4
59.87656 -218.4
59.90748 -218.4
59.93748 -218.4
59.96726 -218.4
60.00059 -218.4
60.03172 -218.4
60.06458 -218.4
60.09553 -218.4
60.12541 -218.4
60.15874 -218.4
60.18919 -218.4
60.21972 -218.4
60.2502 -218.4
60.28308 -218.4
60.31641 -218.4
60.34818 -218.4
60.37845 -218.4
60.40887 -218.4
60.4422 -218.4
60.47553 -218.4
60.50887 -218.4
60.5403 -218.4
60.57364 -218.4
60.60697 -218.4
60.6403 -218.4
60.67364 -218.4
60.70526 -218.4
60.73547 -218.4
60.7688 -218.4
60.80214 -218.4
60.83547 -218.4
60.86551 -218.4
60.89885 -218.4
60.92859 -218.4
60.96193 -218.4
60.99269 -218.4
61.02602 -218.4
61.05822 -218.4
61.09156 -218.4
61.12489 -218.4
61.15532 -218.4
61.18766 -218.4
61.2187 -218.4
61.24887 -218.4
61.2822 -218.4
61.31497 -218.4
61.34769 -218.4
61.37812 -218.4
61.41146 -218.4
61.44479 -218.4
61.47813 -218.4
61.50767 -218.4
61.5409 -218.4
61.57423 -218.4
61.60757 -218.4
61.6409 -218.4
61.67157 -218.4
61.70148 -218.4
61.73254 -218.4
61.76587 -218.4
61.79678 -218.4
61.82824 -218.4
61.85845 -218.4
61.89178 -218.4
61.92512 -218.4
61.95787 -218.4
61.98866 -218.4
62.02146 -218.4
62.05165 -218.4
62.08499 -218.4
62.11832 -218.4
62.15079 -218.4
62.18321 -218.4
62.21471 -218.4
62.24804 -218.4
62.27774 -218.4
62.3078 -218.4
62.34114 -218.4
62.37062 -218.4
62.40395 -218.4
62.43419 -218.4
62.46376 -218.4
62.49415 -218.4
62.52748 -218.4
62.56082 -218.4
62.59415 -218.4
62.62404 -218.4
62.65737 -218.4
62.68936 -218.4
62.72269 -218.4
62.75303 -218.4
62.78343 -218.4
62.81555 -218.4
62.84559 -218.4
62.87892 -218.4
62.90896 -218.4
62.94229 -218.4
62.97392 -218.4
63.00725 -218.4
63.04058 -218.4
63.07391 -218.4
63.10519 -218.4
63.13853 -218.4
63.17186 -218.4
63.2052 -218.4
63.23834 -218.4
63.27039 -218.4
63.30372 -218.4
63.33706 -218.4
63.37039 -218.4
63.40266 -218.4
63.43207 -218.4
63.4628 -218.4
63.49384 -218.4
63.52718 -218.4
63.56018 -218.4
63.59264 -218.4
63.62215 -218.4
63.65356 -218.4
63.6869 -218.4
63.71943 -218.4
63.75069 -218.4
63.78403 -218.4
63.81736 -218.4
63.85069 -218.4
63.88349 -218.4
63.91338 -218.4
63.94671 -218.4
63.9795 -218.4
64.01283 -218.4
64.04617 -218.4
64.0795 -218.4
64.11093 -218.4
64.14229 -218.4
64.17562 -218.4
64.20801 -218.4
64.23902 -218.4
64.2704 -218.4
64.30134 -218.4
64.33467 -218.4
64.368 -218.4
64.40134 -218.4
64.43468 -218.4
64.46477 -218.4
64.4981 -218.4
64.53143 -218.4
64.56115 -218.4
64.59265 -218.4
64.62598 -218.4
64.65932 -218.4
64.69265 -218.4
64.72411 -218.4
64.75414 -218.4
64.78561 -218.4
64.81894 -218.4
64.84986 -218.4
64.87985 -218.4
64.91133 -218.4
64.94138 -218.4
64.97472 -218.4
65.00805 -218.4
65.04139 -218.4
65.07472 -218.4
65.1065 -218.4
65.13983 -218.4
65.16947 -218.4
65.19922 -218.4
65.2319 -218.4
65.26208 -218.4
65.29541 -218.4
65.32681 -218.4
65.36014 -218.4
65.39347 -218.4
65.42422 -218.4
65.45756 -218.4
65.48802 -218.4
65.51842 -218.4
65.54763 -218.4
65.57895 -218.4
65.61228 -218.4
65.64561 -218.4
65.67584 -218.4
65.70666 -218.4
65.73999 -218.4
65.77332 -218.4
65.80666 -218.4
65.83961 -218.4
65.87294 -218.4
65.90627 -218.4
65.93961 -218.4
65.96965 -218.4
65.9995 -218.4
66.03284 -218.4
66.06572 -218.4
66.09905 -218.4
66.12859 -218.4
66.16056 -218.4
66.19314 -218.4
66.22623 -218.4
66.25957 -218.4
66.29225 -218.4
66.32291 -218.4
66.35624 -218.4
66.38957 -218.4
66.4229 -218.4
66.45281 -218.4
66.48405 -218.4
66.51525 -218.4
66.54644 -218.4
66.57977 -218.4
66.6091 -218.4
66.64072 -218.4
66.67405 -218.4
66.70738 -218.4
66.74072 -218.4
66.77151 -218.4
66.80373 -218.4
66.83701 -218.4
66.86893 -218.4
66.90228 -218.4
66.93561 -218.4
66.96894 -218.4
66.99831 -218.4
67.0295 -218.4
67.06284 -218.4
67.09617 -218.4
67.12694 -218.4
67.159 -218.4
67.19169 -218.4
67.22502 -218.4
67.25835 -218.4
67.29169 -218.4
67.32196 -218.4
67.3522 -218.4
67.38553 -218.4
67.41585 -218.4
67.44918 -218.4
67.47903 -218.4
67.51115 -218.4
67.54449 -218.4
67.57782 -218.4
67.60845 -218.4
67.64178 -218.4
67.67236 -218.4
67.7057 -218.4
67.73579 -218.4
67.76912 -218.4
67.80245 -218.4
67.83579 -218.4
67.86913 -218.4
67.89987 -218.4
67.92923 -218.4
67.95937 -218.4
67.99271 -218.4
68.02605 -218.4
68.05701 -218.4
68.09034 -218.4
68.12367 -218.4
68.15282 -218.4
68.18615 -218.4
68.21596 -218.4
68.24657 -218.4
68.27991 -218.4
68.31292 -218.4
68.34625 -218.4
68.37959 -218.4
68.4094 -218.4
68.44273 -218.4
68.47607 -218.4
68.5094 -218.4
68.54223 -218.4
68.57429 -218.4
68.60762 -218.4
68.63705 -218.4
68.67038 -218.4
68.69999 -218.4
68.73332 -218.4
68.76416 -218.4
68.79424 -218.4
68.82758 -218.4
68.86091 -218.4
68.89195 -218.4
68.92454 -218.4
68.95787 -218.4
68.9912 -218.4
69.02454 -218.4
69.05598 -218.4
69.08611 -218.4
69.11844 -218.4
69.15177 -218.4
69.1851 -218.4
69.21569 -218.4
69.24547 -218.4
69.27623 -218.4
69.30956 -218.4
69.34248 -218.4
69.37268 -218.4
69.40209 -218.4
69.4327 -218.4
69.46603 -218.4
69.49937 -218.4
69.53195 -218.4
69.56251 -218.4
69.59492 -218.4
69.62825 -218.4
69.66158 -218.4
69.69492 -218.4
69.72493 -218.4
69.75826 -218.4
69.7916 -218.4
69.82432 -218.4
69.85533 -218.4
69.88866 -218.4
69.91953 -218.4
69.95286 -218.4
69.983 -218.4
70.01553 -218.4
70.04887 -218.4
70.078 -218.4
70.11133 -218.4
70.14143 -218.4
70.17338 -218.4
70.20601 -218.4
70.23637 -218.4
70.2697 -218.4
70.29933 -218.4
70.33088 -218.4
70.36068 -218.4
70.39232 -218.4
70.42565 -218.4
70.45898 -218.4
70.49232 -218.4
70.52565 -218.4
70.55899 -218.4
70.59161 -218.4
70.6236 -218.4
70.65318 -218.4
70.68401 -218.4
70.71734 -218.4
70.74652 -218.4
70.77985 -218.4
70.81143 -218.4
70.84221 -218.4
70.87554 -218.4
70.90572 -218.4
70.93906 -218.4
70.96884 -218.4
70.9986 -218.4
71.03194 -218.4
71.06445 -218.4
71.09778 -218.4
71.12949 -218.4
71.16183 -218.4
71.19516 -218.4
71.22849 -218.4
71.26147 -218.4
71.29452 -218.4
71.32552 -218.4
71.35886 -218.4
71.38863 -218.4
71.41866 -218.4
71.4501 -218.4
71.48343 -218.4
71.51676 -218.4
71.54986 -218.4
71.58319 -218.4
71.61557 -218.4
71.64726 -218.4
71.6806 -218.4
71.71393 -218.4
71.74432 -218.4
71.77502 -218.4
71.80836 -218.4
71.84169 -218.4
71.87393 -218.4
71.90626 -218.4
71.93539 -218.4
71.96872 -218.4
72.00205 -218.4
72.03259 -218.4
72.06348 -218.4
72.09351 -218.4
72.12685 -218.4
72.16018 -218.4
72.19351 -218.4
72.22301 -218.4
72.25231 -218.4
72.28564 -218.4
72.31898 -218.4
72.34892 -218.4
72.37845 -218.4
72.4099 -218.4
72.44126 -218.4
72.47459 -218.4
72.50554 -218.4
72.53887 -218.4
72.56812 -218.4
72.60146 -218.4
72.63479 -218.4
72.66525 -218.4
72.69858 -218.4
72.73192 -218.4
72.76351 -218.4
72.79684 -218.4
72.82665 -218.4
72.85721 -218.4
72.88743 -218.4
72.91918 -218.4
72.95251 -218.4
72.98364 -218.4
73.01698 -218.4
73.04633 -218.4
73.07676 -218.4
73.11009 -218.4
73.14048 -218.4
73.17054 -218.4
73.20081 -218.4
73.23216 -218.4
73.2655 -218.4
73.29722 -218.4
73.32686 -218.4
73.36019 -218.4
73.39281 -218.4
73.42615 -218.4
73.45948 -218.4
73.49044 -218.4
73.52049 -218.4
73.55188 -218.4
73.58521 -218.4
73.61855 -218.4
73.64887 -218.4
73.67849 -218.4
73.71182 -218.4
73.74516 -218.4
73.77833 -218.4
73.80974 -218.4
73.84148 -218.4
73.87481 -218.4
73.90814 -218.4
73.94147 -218.4
73.97481 -218.4
74.00814 -218.4
74.03824 -218.4
74.07157 -218.4
74.10127 -218.4
74.13461 -218.4
74.16508 -218.4
74.19677 -218.4
74.2301 -218.4
74.26033 -218.4
74.29366 -218.4
74.32319 -218.4
74.35352 -218.4
74.38685 -218.4
74.42018 -218.4
74.45217 -218.4
74.48327 -218.4
74.51334 -218.4
74.54667 -218.4
74.58 -218.4
74.61163 -218.4
74.64313 -218.4
74.67341 -218.4
74.70674 -218.4
74.73907 -218.4
74.77026 -218.4
74.80222 -218.4
74.83392 -218.4
74.86726 -218.4
74.89722 -218.4
74.92985 -218.4
74.96154 -218.4
74.99377 -218.4
75.02711 -218.4
75.05708 -218.4
75.08817 -218.4
75.1215 -218.4
75.15095 -218.4
75.18428 -218.4
75.21378 -218.4
75.24595 -218.4
75.27667 -218.4
75.31001 -218.4
75.34334 -218.4
75.37422 -218.4
75.40515 -218.4
75.43848 -218.4
75.47007 -218.4
75.5034 -218.4
75.53358 -218.4
75.5638 -218.4
75.59552 -218.4
75.62672 -218.4
75.66006 -218.4
75.69039 -218.4
75.72372 -218.4
75.75585 -218.4
75.78918 -218.4
75.82252 -218.4
75.85585 -218.4
75.88918 -218.4
75.92004 -218.4
75.95047 -218.4
75.9838 -218.4
76.01714 -218.4
76.04685 -218.4
76.07597 -218.4
76.10558 -218.4
76.13892 -218.4
76.17004 -218.4
76.20129 -218.4
76.23195 -218.4
76.26268 -218.4
76.29601 -218.4
76.32935 -218.4
76.36021 -218.4
76.39065 -218.4
76.42161 -218.4
76.45494 -218.4
76.48827 -218.4
76.51776 -218.4
76.54769 -218.4
76.58102 -218.4
76.61436 -218.4
76.6453 -218.4
76.67724 -218.4
76.70824 -218.4
76.7411 -218.4
76.77443 -218.4
76.80451 -218.4
76.83457 -218.4
76.8679 -218.4
76.90124 -218.4
76.93457 -218.4
76.96751 -218.4
76.9987 -218.4
77.02871 -218.4
77.05824 -218.4
77.09157 -218.4
77.12087 -218.4
77.14941 -218.4
77.18251 -218.4
77.21488 -218.4
77.24821 -218.4
77.28155 -218.4
77.31343 -218.4
77.34676 -218.4
77.37672 -218.4
77.41005 -218.4
77.44136 -218.4
77.4705 -218.4
77.50383 -218.4
77.53385 -218.4
77.56718 -218.4
77.59868 -218.4
77.63201 -218.4
77.66132 -218.4
77.6919 -218.4
77.72523 -218.4
77.75675 -218.4
77.79008 -218.4
77.82342 -218.4
77.85675 -218.4
77.89008 -218.4
77.92255 -218.4
77.95589 -218.4
77.98808 -218.4
78.0208 -218.4
78.05413 -218.4
78.08654 -218.4
78.11824 -218.4
78.14922 -218.4
78.18131 -218.4
78.21465 -218.4
78.24368 -218.4
78.27589 -218.4
78.30923 -218.4
78.34017 -218.4
78.3735 -218.4
78.40434 -218.4
78.43417 -218.4
78.4661 -218.4
78.49944 -218.4
78.53277 -218.4
78.5661 -218.4
78.59889 -218.4
78.62949 -218.4
78.66125 -218.4
78.69459 -218.4
78.72517 -218.4
78.75674 -218.4
78.79008 -218.4
78.82301 -218.4
78.85634 -218.4
78.8848 -218.4
78.9158 -218.4
78.94913 -218.4
78.97983 -217.55
79.01316 -217.55
79.04412 -217.55
79.07638 -217.55
79.1094 -217.55
79.13845 -217.55
79.17178 -217.55
79.20512 -217.55
79.23574 -217.35
79.26907 -216.9
79.30009 -216.9
79.33342 -215.6
79.36619 -211.65
79.39636 -211.65
79.42863 -205.3
79.45834 -205.3
79.49167 -197.65
79.52255 -189.6
79.55515 -189.6
79.58445 -184.35
79.61593 -179.55
79.64926 -179.55
79.67803 -178
79.70909 -178
79.74065 -178
79.77399 -177.55
79.80732 -174.1
79.83942 -174.1
79.87138 -169.05
79.90023 -165.1
79.92981 -165.1
79.96314 -159.65
79.99284 -155.5
80.02618 -155.5
80.05748 -151.15
80.09025 -145.45
80.12359 -145.45
80.15628 -140.65
80.18595 -140.65
80.21491 -133.25
80.24686 -128
80.28019 -122.3
80.31352 -122.3
80.34258 -118.35
80.37592 -118.35
80.40525 -116.2
80.43858 -113.15
80.4697 -113.15
80.499 -109.4
80.5287 -109.4
80.56136 -104.4
80.59469 -98.05
80.62802 -98.05
80.6596 -91.7
80.68926 -83
80.7226 -83
80.75593 -74.9
80.78464 -67.9
80.81739 -67.9
80.84839 -62.45
80.87959 -59.4
80.91293 -58.5
80.9425 -58.5
80.97279 -58.5
81.00613 -58.5
81.03742 -58.5
81.07076 -58.3
81.10409 -58.3
81.13429 -57.85
81.16349 -57.2
81.19495 -57.2
81.22829 -56.1
81.25869 -55.25
81.2877 -55.25
81.32103 -54.35
81.35436 -53.05
81.3877 -53.05
81.41762 -52.4
81.45095 -51.3
81.48045 -51.3
81.51083 -50.45
81.54417 -49.55
81.5775 -49.55
81.61083 -48.45
81.63971 -47.6
81.67165 -47.6
81.70499 -46.7
81.73406 -46.5
81.7674 -46.5
81.79642 -46.3
81.82975 -46.3
81.86308 -46.3
81.89642 -46.3
81.92584 -46.3
81.95918 -46.3
81.98832 -46.3
82.02165 -46.3
82.05447 -45.85
82.0878 -45.85
82.11648 -45.65
82.1464 -45.65
82.17973 -45.4
82.21307 -45
82.24578 -45
82.27911 -45
82.3086 -45
82.34193 -45
82.37527 -45
82.4086 -45
82.4419 -45
82.47212 -45
82.50546 -45
82.53577 -45
82.5691 -45
82.59994 -45
82.63317 -45
82.6665 -45
82.69659 -45
82.72658 -45
82.75597 -45
82.78593 -45
82.81926 -45
82.84907 -45
82.8824 -45
82.91397 -45
82.9473 -45
82.98064 -45
83.01009 -45
83.04343 -45
83.07323 -45
83.10449 -45
83.13783 -45
83.17117 -45
83.2045 -45
83.23444 -45
83.26778 -45
83.30111 -45
83.33444 -45
83.36632 -45
83.39965 -45
83.43212 -45
83.46545 -45
83.49879 -45
83.5284 -45
83.55831 -45
83.59104 -45
83.62437 -45
83.65515 -45
83.68848 -45
83.72182 -45
83.75516 -45
83.78849 -45
83.81855 -45
83.85035 -45
83.88046 -45
83.91069 -45
83.94402 -45
83.97349 -45
84.00282 -45
84.03205 -45
84.06538 -45
84.09872 -45
84.12865 -45
84.15929 -45
84.19096 -45
84.2243 -45
84.25763 -45
84.2903 -45
84.32364 -45
84.35648 -45
84.38702 -45
84.42036 -45
84.44955 -45
84.47991 -45
84.51283 -45
84.54434 -45
84.57767 -45
84.61101 -45
84.64091 -45
84.66994 -45
84.69884 -45
84.73217 -45
84.76337 -45
84.79276 -45
84.82609 -45
84.85513 -45
84.88846 -45
84.9192 -45
84.95074 -45
84.98209 -45
85.01221 -45
85.04554 -45
85.078 -45
85.10769 -45
85.13721 -45
85.16625 -45
85.19958 -45
85.22869 -45
85.25874 -45
85.28992 -45
85.32326 -45
85.35659 -45
85.38992 -45
85.41971 -45
85.44999 -45
85.48333 -45
85.51666 -45
85.54675 -45
85.58009 -45
85.61119 -45
85.64452 -45
85.67786 -45
85.70751 -45
85.73625 -45
85.76756 -45
85.79726 -45
85.83059 -45
85.86392 -45
85.89725 -45
85.92542 -45
85.9574 -45
85.99073 -45
86.02406 -45
86.05647 -45
86.08678 -45
86.1178 -45
86.15113 -45
86.17998 -45
86.21014 -45
86.24011 -45
86.27322 -45
86.30655 -45
86.33868 -45
86.36966 -45
86.39867 -45
86.43125 -44.75
86.46458 -44.75
86.49516 -44.3
86.52758 -43.9
86.55957 -43.9
86.58917 -43
86.62251 -41.7
86.65423 -41.7
86.68307 -39.95
86.71246 -38.4
86.7458 -38.4
86.77913 -35.6
86.81039 -33.4
86.84046 -33.4
86.87379 -30.55
86.90713 -28.8
86.94046 -28.8
86.96901 -24.2
87.00234 -19.4
87.03159 -19.4
87.06205 -15.25
87.09538 -10.7
87.1273 -10.7
87.15749 -6.55
87.18768 -4.35
87.21982 -4.35
87.25315 -2.4
87.28563 -1.7
87.31896 -1.7
87.34773 -1.7
87.37736 -1.3
87.41069 -1.3
87.44403 0.65
87.47443 3.9
87.50572 3.9
87.53701 7.4
87.57035 9.8
87.59972 9.8
87.63248 11.1
87.66275 11.1
87.69285 12.2
87.72618 13.3
87.75723 13.3
87.78778 14.15
87.81808 15.05
87.85126 15.05
87.8846 16.35
87.91709 17.45
87.95042 17.45
87.98332 18.3
88.01357 18.75
88.0469 18.75
88.07639 18.75
88.10554 18.55
88.13887 18.55
88.17124 18.55
88.20457 18.55
88.23792 18.55
88.26893 18.55
88.29797 18.55
88.3289 18.55
88.36224 18.55
88.39178 18.55
88.42302 18.55
88.45265 18.55
88.4817 18.55
88.51504 18.55
88.54517 18.55
88.5785 18.55
88.60905 18.55
88.63839 18.55
88.67172 18.55
88.70215 18.55
88.73396 18.55
88.76662 18.55
88.7967 18.55
88.83003 18.55
88.86182 18.75
88.89206 18.75
88.9223 18.75
88.95186 18.75
88.98519 19.2
89.01578 19.65
89.04911 20.5
89.08244 20.5
89.11458 21.4
89.14791 22.5
89.17735 22.5
89.20918 23.55
89.2382 23.55
89.26771 24.65
89.30104 25.95
89.33437 26.65
89.36553 26.65
89.39886 27.3
89.43201 27.95
89.46534 27.95
89.49488 28.6
89.52357 28.6
89.5569 29.05
89.58952 29.9
89.62286 30.35
89.65557 30.35
89.68669 31.2
89.7186 31.2
89.74889 31.85
89.78222 32.5
89.81078 32.95
89.84034 32.95
89.87154 33.6
89.90432 33.6
89.93765 34.25
89.96703 34.7
89.99817 34.7
90.02857 35.6
90.05824 35.6
90.09158 36.45
90.12473 36.9
90.15546 36.9
90.18564 38
90.21622 38.4
90.24955 38.4
90.28288 38.85
90.31305 39.1
90.34638 39.3
90.37798 39.3
90.41131 39.3
90.44464 39.3
90.47381 39.3
90.5033 39.75
90.53318 39.75
90.56651 40.15
90.59985 40.4
90.63071 40.8
90.65918 40.8
90.68918 41.05
90.72251 41.05
90.75171 41.05
90.78113 41.25
90.81084 41.25
90.84418 41.25
90.87751 41.25
90.90854 41.25
90.93817 41.25
90.9715 41.5
91.00267 41.5
91.036 41.5
91.06601 41.7
91.0961 41.7
91.12497 42.15
91.15501 42.15
91.18835 42.35
91.2211 42.55
91.25173 42.55
91.28194 42.55
91.31152 42.55
91.34485 42.55
91.37431 42.55
91.40491 42.55
91.43707 42.55
91.4665 42.55
91.49983 42.55
91.53316 42.55
91.5665 42.55
91.5957 42.55
91.6274 42.55
91.66074 42.55
91.68994 42.55
91.72271 42.55
91.75296 42.55
91.78629 42.55
91.81963 42.55
91.84989 42.55
91.87912 42.55
91.90944 42.55
91.94277 43
91.9761 43.9
92.00944 43.9
92.03944 44.75
92.06956 45.4
92.1029 45.4
92.13623 46.3
92.16558 47.4
92.19891 47.4
92.2287 48.45
92.26035 49.35
92.29369 49.35
92.3233 50
92.35545 51.1
92.38509 51.1
92.41638 51.75
92.44971 52.2
92.47957 52.2
92.51112 52.6
92.54315 52.6
92.57539 52.85
92.60873 53.05
92.6385 53.05
92.67183 53.5
92.70297 53.7
92.73177 53.7
92.76511 54.15
92.79559 54.6
92.82446 54.6
92.85371 55
92.88705 55.25
92.92038 55.25
92.95347 55.45
92.9868 55.45
93.0155 55.45
93.04539 55.45
93.07873 55.45
93.10752 55.45
93.13693 55.45
93.16849 55.45
93.20182 55.45
93.23515 55.45
93.26494 55.45
93.29511 55.45
93.32527 55.45
93.35708 55.45
93.39041 55.45
93.42039 55.45
93.44995 55.45
93.48271 55.45
93.51604 55.45
93.54938 55.45
93.58189 55.45
93.61407 55.25
93.64537 55.25
93.67531 54.8
93.70864 54.6
93.73887 54.6
93.76899 54.35
93.80229 54.35
93.8325 54.35
93.86583 54.35
93.89916 54.35
93.92923 54.35
93.96161 54.35
93.99225 54.35
94.02558 54.35
94.05891 54.35
94.08968 54.35
94.12302 54.35
94.15439 54.35
94.18772 54.35
94.22105 54.35
94.25051 54.6
94.2806 54.6
94.31099 54.6
94.34432 54.8
94.37495 54.8
94.40479 55
94.43813 55.7
94.47146 55.7
94.50479 56.35
94.53651 57
94.56958 57
94.60291 58.1
94.63504 58.75
94.66838 59.85
94.70171 59.85
94.73187 60.9
94.76181 60.9
94.79393 61.6
94.82726 62.25
94.85689 62.25
94.88931 63.3
94.91806 64.2
94.94761 64.2
94.98094 64.85
95.01102 65.3
95.04435 65.3
95.07768 65.75
95.11002 66.4
95.14336 66.4
95.17393 66.6
95.20727 66.8
95.23734 66.8
95.27067 66.8
95.304 66.8
95.33595 66.8
95.3649 66.8
95.39674 66.8
95.42855 66.8
95.46188 66.8
95.49519 67.05
95.52433 67.05
95.55602 67.25
95.58584 67.25
95.61917 67.7
95.65129 68.35
95.68131 68.35
95.71153 68.8
95.74487 69.65
95.77821 69.65
95.81154 70.55
95.84091 71.2
95.8704 71.2
95.90233 72.7
95.93566 73.8
95.96516 73.8
95.99409 74.9
96.02337 74.9
96.0567 76.2
96.09003 77.75
96.11986 77.75
96.1527 79.25
96.18429 80.6
96.21419 80.6
96.24752 82.75
96.27834 84.1
96.31168 84.1
96.34198 85.4
96.37363 86.25
96.40696 86.25
96.43626 87.15
96.46529 87.8
96.49529 87.8
96.52489 88.45
96.55824 88.9
96.58778 88.9
96.62112 89.55
96.65135 89.55
96.6818 90
96.71513 90.2
96.74576 90.2
96.77909 90.2
96.80828 90.2
96.83785 90.2
96.87119 90.2
96.90044 90.2
96.93084 90.2
96.96061 90.2
96.99332 90.2
97.02666 90.2
97.06 90.2
97.08829 90.2
97.12027 90.2
97.15079 90.2
97.18412 90.2
97.21597 90.2
97.24931 90.2
97.28062 90.2
97.31359 90.2
97.34692 90.2
97.37871 90.2
97.4108 90.2
97.44073 90.2
97.4704 90.2
97.50373 90.2
97.53284 90.2
97.56448 90.2
97.59476 90
97.62809 89.75
97.66142 89.75
97.69196 89.55
97.72064 88.9
97.75184 88.9
97.78517 88.25
97.8185 87.55
97.84865 87.55
97.87842 87.35
97.90769 87.35
97.93855 87.15
97.97188 86.9
98.00313 86.5
98.03176 86.5
98.06133 86.05
98.09466 86.05
98.12799 85.6
98.15757 84.95
98.18855 84.95
98.21941 83.85
98.25274 82.55
98.28607 82.55
98.3194 81.45
98.35274 79.7
98.38293 79.7
98.41211 78.4
98.44544 76.85
98.47446 76.85
98.50528 76.2
98.53861 75.55
98.56882 75.55
98.60216 75.1
98.63431 74.05
98.66341 74.05
98.69675 72.95
98.73008 72.3
98.76341 72.05
98.79292 72.05
98.82626 71.85
98.85959 71.85
98.89292 71.85
98.92625 71.85
98.95616 71.85
98.98891 71.85
99.01894 71.85
99.05142 71.2
99.08475 71.2
99.11607 69.9
99.14631 68.15
99.17517 68.15
99.20664 65.75
99.23997 65.75
99.27319 63.75
99.3042 61.35
99.33725 61.35
99.37058 59.4
99.40392 56.1
99.4341 52.4
99.46616 52.4
99.4995 49.15
99.53179 45.4
99.56513 45.4
99.59484 41.5
99.62559 38.2
99.65419 38.2
99.68526 36
99.71861 33.85
99.74757 33.85
99.77842 32.95
99.81175 32.95
99.84335 32.95
99.87668 32.95
99.91001 32.1
99.94083 32.1
99.97417 30.35
100.0064 26.85
100.0397 26.85
100.0722 23.35
100.1055 20.05
100.1341 20.05
100.1638 15.9
100.1971 12
100.2286 12
100.2584 9.8
100.2918 5.65
100.3251 5.65
100.3584 3.25
100.3896 0.85
100.4196 0.85
100.4509 -1.5
100.4824 -2.8
100.5158 -2.8
100.5479 -3.05
100.5813 -3.05
100.6116 -3.05
100.6449 -3.05
100.6782 -3.05
100.7116 -3.05
100.7447 -3.05
100.778 -2.8
100.8078 -2.8
100.8411 -2.4
100.8712 -2.15
100.9029 -2.15
100.935 -1.5
100.9653 -1.05
100.9986 -1.05
101.0319 -0.4
101.0636 0.4
101.0949 0.4
101.1282 1.05
101.1615 1.3
101.1924 1.5
101.2221 1.5
101.2526 1.5
101.2856 1.5
101.319 1.5
101.3508 1.5
101.3824 1.5
101.4138 1.5
101.4471 1.5
101.4804 1.5
101.5138 1.5
101.5458 1.5
101.575 1.5
101.6083 1.3
101.6416 0.65
101.675 -0.4
101.7048 -0.4
101.7357 -1.3
101.7656 -1.3
101.7989 -1.5
101.8322 -1.5
101.8613 -1.5
101.8906 -1.5
101.9205 -1.5
101.9538 -1.5
101.9834 -1.5
102.0149 -1.5
102.0478 -1.5
102.0784 -1.5
102.1118 -1.5
102.1419 -1.5
102.1753 -1.5
102.2053 -1.5
102.2372 -1.5
102.2705 -1.5
102.3014 -1.5
102.3316 -1.5
102.365 -1.5
102.3968 -1.5
102.4301 -1.5
102.4629 -1.5
102.4962 -1.5
102.5256 -1.5
102.5573 -1.5
102.5907 -1.5
102.6196 -1.5
102.6518 -1.5
102.684 -1.5
102.7128 -1.5
102.7461 -1.5
102.7795 -1.5
102.8084 -1.5
102.8403 -1.5
102.8736 -1.5
102.907 -1.5
102.9377 -1.5
102.9674 -1.5
102.9971 -1.5
103.0296 -1.5
103.0629 -1.5
103.0933 -1.5
103.1237 -1.5
103.1571 -1.5
103.1856 -1.5
103.219 -1.5
103.2497 -1.5
103.2802 -1.5
103.3109 -1.5
103.3432 -1.5
103.3766 -1.5
103.4068 -1.5
103.4363 -1.5
103.4658 -1.5
103.4991 -1.5
103.5325 -1.5
103.5658 -1.5
103.5964 -1.5
103.628 -1.5
103.6574 -1.5
103.6908 -1.5
103.7237 -1.5
103.7562 -1.5
103.7895 -1.5
103.8217 -1.5
103.855 -1.5
103.8883 -1.5
103.9217 -1.5
103.955 -1.5
103.9883 -1.5
104.0217 -1.5
104.0525 -1.5
104.0844 -1.5
104.1141 -1.5
104.1464 -1.5
104.1797 -1.5
104.2112 -1.5
104.2438 -1.5
104.2731 -1.5
104.304 -1.5
104.3374 -1.5
104.3707 -1.5
104.4032 -1.5
104.4351 -1.5
104.4662 -1.5
104.4995 -1.5
104.5303 -1.5
104.5606 -1.5
104.5913 -1.5
104.6215 -1.5
104.6549 -1.5
104.6882 -1.5
104.7167 -1.5
104.7482 -1.5
104.7793 -1.5
104.8126 -1.5
104.845 -1.5
104.8783 -1.5
104.9117 -1.5
104.9432 -1.5
104.9765 -1.5
105.009 -1.5
105.0392 -1.5
105.0697 -1.5
105.0989 -1.5
105.1322 -1.5
105.1611 -1.5
105.1904 -1.5
105.2203 -1.5
105.2533 -1.5
105.2866 -1.5
105.3187 -1.5
105.3519 -1.5
105.3851 -1.5
105.4141 -1.5
105.4475 -1.5
105.4789 -1.5
105.5093 -1.5
105.5426 -1.5
105.5759 -1.5
105.6093 -1.5
105.6426 -1.5
105.6719 -1.5
105.7049 -1.5
105.7349 -1.5
105.7682 -1.5
105.7977 -1.5
105.8279 -1.5
105.8598 -1.5
105.8904 -1.5
105.9237 -1.5
105.9563 -1.5
105.9877 -1.5
106.021 -1.5
106.0535 -1.5
106.0868 -1.5
106.1162 -1.5
106.1463 -1.5
106.1764 -1.5
106.2058 -1.5
106.2392 -1.5
106.2725 -1.5
106.3014 -1.5
106.3335 -1.5
106.3626 -1.5
106.3959 -1.5
106.4249 -1.5
106.4582 -1.5
106.4886 -1.5
106.5219 -1.5
106.5552 -1.5
106.5864 -1.5
106.6188 -1.5
106.6487 -1.5
106.682 -1.5
106.7153 -1.5
106.7453 -1.5
106.7745 -1.5
106.8072 -1.5
106.8375 -1.5
106.8708 -1.5
106.9001 -1.5
106.9306 -1.5
106.9612 -1.5
106.9945 -1.5
107.0278 -1.5
107.0612 -1.5
107.0914 -1.5
107.1247 -1.5
107.1544 -1.5
107.1877 -1.5
107.2174 -1.5
107.2462 -1.5
107.2769 -1.5
107.3077 -1.5
107.3411 -1.5
107.3706 -1.5
107.404 -1.5
107.4354 -1.5
107.4688 -1.5
107.5021 -1.5
107.5346 -1.5
107.5645 -1.5
107.5955 -1.5
107.6256 -1.5
107.6589 -1.5
107.6886 -1.5
107.718 -1.5
107.7466 -1.5
107.7764 -1.5
107.8097 -1.5
107.8382 -1.5
107.8681 -1.5
107.8963 -1.5
107.927 -1.5
107.9603 -1.5
107.9893 -1.5
108.019 -1.5
108.0502 -1.5
108.0804 -1.5
108.1137 -1.5
108.1469 -1.5
108.1782 -1.5
108.2081 -1.5
108.2414 -1.5
108.2748 -1.5
108.3073 -1.5
108.3376 -1.5
108.3691 -1.5
108.4024 -1.5
108.4358 -1.5
108.4679 -1.5
108.4997 -1.5
108.533 -1.5
108.5648 -1.5
108.5982 -1.5
108.6276 -1.5
108.6565 -1.5
108.6898 -1.5
108.7232 -1.5
108.7565 -1.5
108.7857 -1.5
108.8153 -1.5
108.8445 -1.5
108.8779 -1.5
108.9112 -1.5
108.9445 -1.5
108.9779 -1.5
109.0067 -1.5
109.0363 -1.5
109.0696 -1.5
109.0997 -1.5
109.1292 -1.5
109.1572 -1.5
109.187 -1.5
109.2204 -1.5
109.2489 -1.5
109.2823 -1.5
109.3123 -1.5
109.3423 -1.5
109.3757 -1.5
109.4055 -1.5
109.4346 -1.5
109.466 -1.5
109.4983 -1.5
109.5316 -1.5
109.5611 -1.5
109.5907 -1.5
109.6219 -1.5
109.6532 -1.5
109.6866 -1.5
109.716 -1.5
109.7448 -1.5
109.7743 -1.5
109.8033 -1.5
109.8366 -1.5
109.8679 -1.5
109.8979 -1.5
109.9279 -1.5
109.957 -1.5
109.9904 -1.5
110.0219 -1.5
110.0532 -1.5
110.0865 -1.5
110.1187 -1.5
110.152 -1.5
110.1807 -1.5
110.2108 -1.5
110.2441 -1.5
110.2733 -1.5
110.3066 -1.5
110.3363 -1.5
110.3652 -1.5
110.3951 -1.5
110.427 -1.5
110.4603 -1.5
110.4918 -1.5
110.5215 -1.5
110.5525 -1.5
110.5839 -1.5
110.6173 -1.5
110.6466 -1.5
110.68 -1.5
110.7116 -1.5
110.7403 -1.5
110.7736 -1.5
110.8067 -1.5
110.84 -1.5
110.8725 -1.5
110.9028 -1.5
110.9361 -1.5
110.9656 -1.5
110.9989 -1.5
111.0282 -1.5
111.0615 -1.5
111.0948 -1.5
111.1244 -1.5
111.1534 -1.5
111.1829 -1.5
111.2162 -1.5
111.2496 -1.5
111.2788 -1.5
111.3089 -1.5
111.3389 -1.5
111.3695 -1.5
111.4028 -1.5
111.433 -1.5
111.4648 -1.5
111.4969 -1.5
111.5276 -1.5
111.5609 -1.5
111.5902 -1.5
111.6196 -1.5
111.653 -1.5
111.6839 -1.5
111.7172 -1.5
111.7475 -1.5
111.7793 -1.5
111.8092 -1.5
111.8389 -1.5
111.8723 -1.5
111.9025 -1.5
111.9325 -1.5
111.9658 -1.5
111.9975 -1.5
112.0308 -1.5
112.0595 -1.5
112.0919 -1.5
112.1239 -1.5
112.1558 -1.5
112.1891 -1.5
112.2215 -1.5
112.2496 -1.5
112.2801 -1.5
112.3107 -1.5
112.344 -1.5
112.3747 -1.5
112.4078 -1.5
112.4411 -1.5
112.4745 -1.5
112.5078 -1.5
112.5367 -1.5
112.5679 -1.5
112.6012 -1.5
112.634 -1.5
112.6673 -1.5
112.697 -1.5
112.7303 -1.5
112.7621 -1.5
112.7936 -1.5
112.8269 -1.5
112.8593 -1.5
112.8926 -1.5
112.9231 -1.5
112.9544 -1.5
112.9878 -1.5
113.0209 -1.5
113.0507 -1.5
113.0819 -1.5
113.1152 -1.5
113.1486 -1.5
113.1813 -1.5
113.2113 -1.5
113.2434 -1.5
113.2753 -1.5
113.3087 -1.5
113.3406 -1.5
113.372 -1.5
113.4054 -1.5
113.4387 -1.5
113.472 -1.5
113.5013 -1.5
113.5304 -1.5
113.5611 -1.5
113.59 -1.5
113.6234 -1.5
113.6536 -1.5
113.6856 -1.5
113.7149 -1.5
113.7482 -1.5
113.7816 -1.5
113.8111 -1.5
113.8406 -1.5
113.8739 -1.5
113.9051 -1.5
113.9385 -1.5
113.9672 -1.5
113.9976 -1.5
114.0278 -1.5
114.0612 -1.5
114.0945 -1.5
114.1244 -1.5
114.1533 -1.5
114.1841 -1.5
114.2139 -1.5
114.2472 -1.5
114.2797 -1.5
114.3119 -1.5
114.3403 -1.5
114.3708 -1.5
114.4041 -1.5
114.4334 -1.5
114.4664 -1.5
114.4962 -1.5
114.5259 -1.5
114.5593 -1.5
114.5926 -1.5
114.6235 -1.5
114.6557 -1.5
114.6858 -1.5
114.7191 -1.5
114.7525 -1.5
114.7806 -1.5
114.8112 -1.5
114.8419 -1.5
114.8753 -1.5
114.9086 -1.5
114.9419 -1.5
114.9748 -1.5
115.0065 -1.5
115.0399 -1.5
115.0703 -1.5
115.1005 -1.5
115.1318 -1.5
115.1627 -1.5
115.196 -1.5
115.2268 -1.5
115.2564 -1.5
115.2866 -1.5
115.3167 -1.5
115.3501 -1.5
115.3805 -1.5
115.4139 -1.5
115.4472 -1.5
115.4772 -1.5
115.5105 -1.5
115.5401 -1.5
115.5687 -1.5
115.5985 -1.5
115.6283 -1.5
115.6616 -1.5
115.6916 -1.5
115.7241 -1.5
115.753 -1.5
115.7864 -1.5
115.8197 -1.5
115.8481 -1.5
115.8796 -1.5
115.91 -1.5
115.9388 -1.5
115.9721 -1.5
116.0036 -1.5
116.0318 -1.5
116.0652 -1.5
116.0951 -1.5
116.1284 -1.5
116.158 -1.5
116.1882 -1.5
116.2204 -1.5
116.2537 -1.5
116.287 -1.5
116.3159 -1.5
116.3492 -1.5
116.3826 -1.5
116.411 -1.5
116.4443 -1.5
116.4748 -1.5
116.5048 -1.5
116.5347 -1.5
116.5644 -1.5
116.5977 -1.5
116.6277 -1.5
116.6569 -1.5
116.6902 -1.5
116.7209 -1.5
116.7542 -1.5
116.7838 -1.5
116.8171 -1.5
116.8475 -1.5
116.8767 -1.5
116.9101 -1.5
116.9397 -1.5
116.9692 -1.5
117.0011 -1.5
117.0344 -1.5
117.0677 -1.5
117.1011 -1.5
117.132 -1.5
117.1612 -1.5
117.1917 -1.5
117.225 -1.5
117.2541 -1.5
117.2865 -1.5
117.3178 -1.5
117.3512 -1.5
117.3845 -1.5
117.4139 -1.5
117.4473 -1.5
117.4773 -1.5
117.5085 -1.5
117.5418 -1.5
117.5738 -1.5
117.6071 -1.5
117.6404 -1.5
117.6704 -1.5
117.7037 -1.5
117.7367 -1.5
117.7671 -1.5
117.8003 -1.5
117.8286 -1.5
117.862 -1.5
117.8906 -1.5
117.9194 -1.5
117.9487 -1.5
117.982 -1.5
118.0154 -1.5
118.0452 -1.5
118.0738 -1.5
118.1029 -1.5
118.1344 -1.5
118.1678 -1.5
118.2011 -1.5
118.2328 -1.5
118.2655 -1.5
118.2988 -1.5
118.3321 -1.5
118.3626 -1.5
118.3925 -1.5
118.4219 -1.5
118.4526 -1.5
118.4859 -1.5
118.515 -1.5
118.5483 -1.5
118.5778 -1.5
118.6087 -1.5
118.642 -1.5
118.6726 -1.5
118.7057 -1.5
118.7366 -1.5
118.7667 -1.5
118.8 -1.5
118.833 -1.5
118.8612 -1.5
118.8917 -1.5
118.922 -1.5
118.9554 -1.5
118.9845 -1.5
119.0146 -1.5
119.0429 -1.5
119.0763 -1.5
119.1096 -1.5
119.138 -1.5
119.1686 -1.5
119.1983 -1.5
119.2268 -1.5
119.2601 -1.5
119.2907 -1.5
119.3241 -1.5
119.3545 -1.5
119.3849 -1.5
119.4182 -1.5
119.4479 -1.5
119.4778 -1.5
119.5068 -1.5
119.5367 -1.5
119.5701 -1.5
119.5988 -1.5
119.628 -1.5
119.6613 -1.5
119.6911 -1.5
119.7244 -1.5
119.7546 -1.5
119.7842 -1.5
119.8147 -1.5
119.8443 -1.5
119.8776 -1.5
119.9076 -1.5
119.9409 -1.5
119.97 -1.5
120.0014 -1.5
120.0347 -1.5
120.0637 -1.5
120.0944 -1.5
120.1277 -1.5
120.1567 -1.5
120.19 -1.5
120.2195 -1.5
120.2529 -1.5
120.2852 -1.5
120.316 -1.5
120.3493 -1.5
120.3797 -1.5
120.4091 -1.5
120.4378 -1.5
120.4675 -1.5
120.5009 -1.5
120.5301 -1.5
120.5635 -1.5
120.5931 -1.5
120.6225 -1.5
120.6559 -1.5
120.6871 -1.5
120.7167 -1.5
120.7487 -1.5
120.7783 -1.5
120.8116 -1.5
120.8417 -1.5
120.875 -1.5
120.9082 -1.5
120.941 -1.5
120.9743 -1.5
121.0045 -1.5
121.0342 -1.5
121.0644 -1.5
121.0977 -1.5
121.1311 -1.5
121.1644 -1.5
121.1944 -1.5
121.2267 -1.5
121.2599 -1.5
121.2932 -1.5
121.3248 -1.5
121.3552 -1.5
121.3881 -1.5
121.4181 -1.5
121.4514 -1.5
121.4814 -1.5
121.5147 -1.5
121.548 -1.5
121.5805 -1.5
121.6139 -1.5
121.6423 -1.5
121.6702 -1.5
121.7035 -1.5
121.7333 -1.5
121.7666 -1.5
121.7967 -1.5
121.83 -1.5
121.861 -1.5
121.8913 -1.5
121.9246 -1.5
121.9562 -1.5
121.9887 -1.5
122.02 -1.5
122.0493 -1.5
122.0826 -1.5
122.1122 -1.5
122.1412 -1.5
122.1707 -1.5
122.2016 -1.5
122.2349 -1.5
122.266 -1.5
122.2975 -1.5
122.3292 -1.5
122.3625 -1.5
122.3959 -1.5
122.4266 -1.5
122.4582 -1.5
122.4915 -1.5
122.5248 -1.5
122.5582 -1.5
122.5876 -1.5
122.6162 -1.5
122.6495 -1.5
122.6795 -1.5
122.7128 -1.5
122.7448 -1.5
122.7767 -1.5
122.8075 -1.5
122.8409 -1.5
122.8742 -1.5
122.906 -1.5
122.9384 -1.5
122.9697 -1.5
122.9997 -1.5
123.0331 -1.5
123.0664 -1.5
123.0946 -1.5
123.1242 -1.5
123.1539 -1.5
123.1872 -1.5
123.2179 -1.5
123.2475 -1.5
123.2761 -1.5
123.3082 -1.5
123.3415 -1.5
123.3733 -1.5
123.4066 -1.5
123.438 -1.5
123.4705 -1.5
123.5039 -1.5
123.5351 -1.5
123.5673 -1.5
123.5999 -1.5
123.6325 -1.5
123.6659 -1.5
123.699 -1.5
123.7319 -1.5
123.7605 -1.5
123.793 -1.5
123.8264 -1.5
123.8561 -1.5
123.8893 -1.5
123.921 -1.5
123.9506 -1.5
123.984 -1.5
124.015 -1.5
124.0441 -1.5
124.0748 -1.5
124.1081 -1.5
124.1414 -1.5
124.1748 -1.5
124.2081 -1.5
124.2382 -1.5
124.2715 -1.5
124.3049 -1.5
124.3382 -1.5
124.3685 -1.5
124.3988 -1.5
124.4281 -1.5
124.4614 -1.5
124.4914 -1.5
124.5209 -1.5
124.5503 -1.5
124.5835 -1.5
124.6169 -1.5
124.6502 -1.5
124.6829 -1.5
124.7162 -1.5
124.7475 -1.5
124.7808 -1.5
124.8091 -1.5
124.8386 -1.5
124.872 -1.5
124.901 -1.5
124.9344 -1.5
124.9677 -1.5
124.9969 -1.5
125.0278 -1.5
125.0611 -1.5
125.0945 -1.5
125.1257 -1.5
125.1562 -1.5
125.185 -1.5
125.2177 -1.5
125.251 -1.5
125.2803 -1.5
125.3136 -1.5
125.3431 -1.5
125.3764 -1.5
125.4097 -1.5
125.4394 -1.5
125.4688 -1.5
125.4985 -1.5
125.5318 -1.5
125.5651 -1.5
125.5947 -1.5
125.6268 -1.5
125.6601 -1.5
125.6903 -1.5
125.7236 -1.5
125.7522 -1.5
125.7852 -1.5
125.8185 -1.5
125.8504 -1.5
125.8837 -1.5
125.917 -1.5
125.9475 -1.5
125.9788 -1.5
126.0101 -1.5
126.0434 -1.5
126.0736 -1.5
126.1033 -1.5
126.1336 -1.5
126.1658 -1.5
126.1992 -1.5
126.2322 -1.5
126.2611 -1.5
126.2928 -1.5
126.3222 -1.5
126.3555 -1.5
126.3869 -1.5
126.4203 -1.5
126.4501 -1.5
126.4834 -1.5
126.5167 -1.5
126.5472 -1.5
126.5805 -1.5
126.6123 -1.5
126.6445 -1.5
126.6779 -1.5
126.7063 -1.5
126.7371 -1.5
126.7682 -1.5
126.7998 -1.5
126.8331 -1.5
126.8628 -1.5
126.8921 -1.5
126.9242 -1.5
126.9541 -1.5
126.9874 -1.5
127.0169 -1.5
127.047 -1.5
127.0792 -1.5
127.1104 -1.5
127.1438 -1.5
127.1771 -1.5
127.2104 -1.5
127.2421 -1.5
127.2755 -1.5
127.3088 -1.5
127.3421 -1.5
127.3738 -1.5
127.4031 -1.5
127.4361 -1.5
127.4695 -1.5
127.5028 -1.5
127.5328 -1.5
127.565 -1.5
127.5968 -1.5
127.6302 -1.5
127.6635 -1.5
127.6935 -1.5
127.7235 -1.5
127.7568 -1.5
127.7901 -1.5
127.8235 -1.5
127.8548 -1.5
127.8861 -1.5
127.9169 -1.5
127.9502 -1.5
127.9797 -1.5
128.0101 -1.5
128.0434 -1.5
128.0751 -1.5
128.1084 -1.5
128.1381 -1.5
128.1714 -1.5
128.2031 -1.5
128.2356 -1.5
128.269 -1.5
128.3023 -1.5
128.3312 -1.5
128.362 -1.5
128.393 -1.5
128.4263 -1.5
128.4566 -1.5
128.4872 -1.5
128.5165 -1.5
128.5469 -1.5
128.5802 -1.5
128.6095 -1.5
128.6407 -1.5
128.6721 -1.5
128.704 -1.5
128.7373 -1.5
128.7702 -1.5
128.8036 -1.5
128.8329 -1.5
128.8662 -1.5
128.8995 -1.5
128.9329 -1.5
128.9662 -1.5
128.9948 -1.5
129.0264 -1.5
129.0598 -1.5
129.0889 -1.5
129.1195 -1.5
129.1501 -1.5
129.1808 -1.5
129.2141 -1.5
129.2464 -1.5
129.2797 -1.5
129.3091 -1.5
129.3413 -1.5
129.3746 -1.5
129.4066 -1.5
129.438 -1.5
129.4711 -1.5
129.503 -1.5
129.5364 -1.5
129.5669 -1.5
129.5998 -1.5
129.6296 -1.5
129.6629 -1.5
129.6963 -1.5
129.7281 -1.5
129.7589 -1.5
129.7923 -1.5
129.822 -1.5
129.8553 -1.5
129.8856 -1.5
129.9189 -1.5
129.9482 -1.5
129.9801 -1.5
130.0135 -1.5
130.0446 -1.5
130.0745 -1.5
130.1056 -1.5
130.1389 -1.5
130.1723 -1.5
130.2025 -1.5
130.2351 -1.5
130.2684 -1.5
130.3018 -1.5
130.3351 -1.5
130.3684 -1.5
130.399 -1.5
130.4306 -1.5
130.4615 -1.5
130.4948 -1.5
130.5243 -1.5
130.5546 -1.5
130.5879 -1.5
130.6193 -1.5
130.6526 -1.5
130.6854 -1.5
130.7146 -1.5
130.7479 -1.5
130.7807 -1.5
130.814 -1.5
130.8474 -1.5
130.8807 -1.5
130.9103 -1.5
130.9436 -1.5
130.977 -1.5
131.0067 -1.5
131.0375 -1.5
131.067 -1.5
131.1003 -1.5
131.1337 -1.5
131.1652 -1.5
131.1945 -1.5
131.2268 -1.5
131.2601 -1.5
131.2935 -1.5
131.3268 -1.5
131.3565 -1.5
131.3863 -1.5
131.4176 -1.5
131.4509 -1.5
131.4815 -1.5
131.5148 -1.5
131.5482 -1.5
131.5815 -1.5
131.6148 -1.5
131.6482 -1.5
131.6792 -1.5
131.7084 -1.5
131.7417 -1.5
131.775 -1.5
131.8083 -1.5
131.8417 -1.5
131.8728 -1.5
131.9039 -1.5
131.9372 -1.5
131.9684 -1.5
131.9993 -1.5
132.0298 -1.5
132.0614 -1.5
132.0947 -1.5
132.1281 -1.5
132.159 -1.5
132.1906 -1.5
132.2218 -1.5
132.2552 -1.5
132.2879 -1.5
132.3191 -1.5
132.3497 -1.5
132.3813 -1.5
132.4146 -1.5
132.4479 -1.5
132.4812 -1.5
132.512 -1.5
132.5409 -1.5
132.5742 -1.5
132.605 -1.5
132.6369 -1.5
132.6702 -1.5
132.7036 -1.5
132.7369 -1.5
132.7682 -1.5
132.8015 -1.5
132.8318 -1.5
132.8622 -1.5
132.8955 -1.5
132.927 -1.5
132.9573 -1.5
132.9907 -1.5
133.0205 -1.5
133.0538 -1.5
133.0872 -1.5
133.1182 -1.5
133.1502 -1.5
133.1826 -1.5
133.2159 -1.5
133.2492 -1.5
133.2813 -1.5
133.3144 -1.5
133.3478 -1.5
133.3811 -1.5
133.4142 -1.5
133.4454 -1.5
133.4787 -1.5
133.5117 -1.5
133.545 -1.5
133.575 -1.5
133.605 -1.5
133.6368 -1.5
133.6686 -1.5
133.702 -1.5
133.7353 -1.5
133.7659 -1.5
133.7983 -1.5
133.8317 -1.5
133.865 -1.5
133.8981 -1.5
133.9315 -1.5
133.9628 -1.5
133.9944 -1.5
134.0278 -1.5
134.0594 -1.5
134.0928 -1.5
134.1227 -1.5
134.1554 -1.5
134.1888 -1.5
134.2221 -1.5
134.2554 -1.5
134.2888 -1.5
134.3221 -1.5
134.3554 -1.5
134.3849 -1.5
134.4157 -1.5
134.4476 -1.5
134.4773 -1.5
134.5106 -1.5
134.5418 -1.5
134.5708 -1.5
134.6029 -1.5
134.6359 -1.5
134.6693 -1.5
134.6995 -1.5
134.7295 -1.5
134.7611 -1.5
134.7944 -1.5
134.8278 -1.5
134.8587 -1.5
134.8921 -1.5
134.9254 -1.5
134.9573 -1.5
134.9907 -1.5
135.0228 -1.5
135.0561 -1.5
135.0884 -1.5
135.1189 -1.5
135.1522 -1.5
135.1856 -1.5
135.2149 -1.5
135.2437 -1.5
135.2748 -1.5
135.3082 -1.5
135.3405 -1.5
135.3727 -1.5
135.4042 -1.5
135.4354 -1.5
135.4688 -1.5
135.5012 -1.5
135.5318 -1.5
135.5646 -1.5
135.5953 -1.7
135.6286 -1.7
135.6589 -2.15
135.6897 -2.4
135.7188 -2.4
135.7497 -2.6
135.783 -2.6
135.8154 -2.6
135.8478 -2.6
135.8811 -2.6
135.9112 -2.6
135.9446 -2.6
135.9767 -2.6
136.0101 -2.6
136.0403 -2.6
136.0737 -2.6
136.107 -2.6
136.1362 -2.6
136.1658 -2.6
136.1979 -2.6
136.2312 -2.4
136.2646 -2.4
136.2941 -2.4
136.3262 -2.15
136.3587 -2.15
136.3886 -2.15
136.4219 -1.7
136.4533 -1.3
136.4827 -1.3
136.5137 -1.05
136.547 -1.05
136.5803 -1.05
136.6136 -1.05
136.6436 -1.05
136.6733 -1.05
136.7067 -1.05
136.74 -1.05
136.7696 -1.05
136.8001 -1.05
136.8306 -1.05
136.8606 -1.05
136.8939 -1.05
136.9272 -1.05
136.9576 -1.05
136.991 -1.05
137.0224 -1.05
137.0557 -1.05
137.0884 -1.05
137.1217 -1.05
137.1512 -1.05
137.1832 -1.05
137.2165 -1.05
137.2499 -1.05
137.2821 -1.05
137.3125 -1.05
137.3422 -1.05
137.3755 -1.05
137.4082 -1.05
137.4378 -1.05
137.4712 -1.05
137.5014 -1.05
137.5347 -1.05
137.5659 -1.05
137.5992 -1.05
137.6284 -1.05
137.6601 -1.05
137.6934 -1.05
137.7248 -1.05
137.7558 -1.05
137.7865 -1.05
137.8198 -1.05
137.8531 -1.05
137.8848 -1.05
137.9181 -1.05
137.9514 -1.05
137.9838 -1.05
138.0171 -1.05
138.0487 -1.05
138.0791 -1.05
138.1087 -1.05
138.1411 -1.05
138.1744 -1.05
138.2044 -1.05
138.2377 -1.05
138.271 -1.05
138.3013 -1.05
138.3347 -1.05
138.3648 -1.05
138.394 -1.05
138.426 -0.85
138.4563 0.85
138.4896 0.85
138.52 3.05
138.5533 5.2
138.5835 5.2
138.6155 9.8
138.6488 12
138.6821 12
138.7155 12.65
138.7488 12.2
138.7809 12.2
138.8143 9.8
138.8448 5.45
138.877 5.45
138.9103 -0.65
138.9436 -6.55
138.977 -10.9
139.0095 -10.9
139.04 -13.3
139.0702 -13.75
139.101 -13.75
139.1343 -13.1
139.1677 -10.7
139.1986 -10.7
139.2285 -6.3
139.258 -0.4
139.2913 -0.4
139.3247 6.1
139.3563 10.25
139.388 10.25
139.4193 13.3
139.4527 13.95
139.486 13.95
139.5187 13.5
139.5508 10.25
139.5842 10.25
139.6175 5.45
139.6473 1.7
139.6806 -7.4
139.7128 -7.4
139.7439 -10.9
139.7773 -13.3
139.81 -13.3
139.8399 -13.5
139.8721 -13.5
139.9032 -12.2
139.9365 -9.35
139.9671 -9.35
140.0004 -5.2
140.0295 -0.85
140.0605 -0.85
140.0938 4.15
140.1232 8.3
140.1532 8.3
140.1866 10.25
140.2188 10.45
140.2521 10.45
140.2831 9.8
140.3144 8.5
140.3462 8.5
140.3794 5.45
140.4127 1.7
140.444 1.7
140.4752 -2.15
140.5085 -5.2
140.5416 -5.2
140.575 -6.75
140.6083 -6.95
140.6416 -6.95
140.6734 -6.75
140.7053 -5.85
140.7386 -5
140.7691 -5
140.7996 -3.9
140.8302 -3.25
140.8608 -3.25
140.8941 -3.25
140.9274 -3.25
140.9584 -3.25
140.9917 -3.25
141.025 -3.25
141.0584 -3.25
141.0898 -3.25
141.1231 -3.25
141.1542 -3.25
141.1847 -3.25
141.218 -3.25
141.2513 -3.25
141.2847 -3.25
141.3134 -3.25
141.3453 -3.25
141.3787 -3.25
141.4088 -3.25
141.439 -3.25
141.4711 -3.25
141.5016 -3.25
141.535 -3.25
141.5683 -3.25
141.6017 -3.25
141.634 -3.25
141.6658 -3.25
141.6991 -3.25
141.7317 -3.25
141.764 -3.25
141.7935 -3.25
141.8242 -3.25
141.8575 -3.25
141.8908 -3.25
141.9212 -3.25
141.9511 -3.25
141.9833 -3.25
142.0167 -3.25
142.05 -3.25
142.0822 -3.25
142.1116 -3.25
142.1436 -3.25
142.1769 -3.25
142.2102 -3.25
142.2434 -3.25
142.2764 -3.25
142.3097 -3.25
142.343 -3.25
142.3764 -3.25
142.4068 -3.25
142.4401 -3.25
142.4707 -3.25
142.5041 -3.25
142.5368 -3.25
142.5662 -3.25
142.5962 -3.05
142.6295 -3.05
142.6629 -2.8
142.6937 -2.4
142.7247 -2.4
142.7549 -1.95
142.7882 -1.7
142.8215 -1.7
142.8535 -1.5
142.8841 -1.5
142.9152 -1.5
142.9471 -1.5
142.9804 -1.5
143.0099 -1.5
143.0417 -1.5
143.0734 -1.5
143.1037 -1.5
143.1371 -1.5
143.1671 -1.5
143.2004 -1.5
143.23 -1.5
143.2608 -1.5
143.2941 -1.5
143.327 -1.5
143.3604 -1.5
143.3925 -1.5
143.4256 -1.5
143.4589 -1.5
143.4887 -1.5
143.522 -1.5
143.5543 -1.5
143.5839 -1.5
143.6173 -1.5
143.6475 -1.5
143.6805 -1.5
143.7138 -1.5
143.7441 -1.5
143.7774 -1.5
143.8092 -1.5
143.8425 -1.5
143.8759 -1.5
143.9066 -1.5
143.9399 -1.5
143.972 -1.5
144.0023 -1.5
144.0348 -1.5
144.0647 -1.5
144.098 -1.5
144.1292 -1.5
144.1587 -1.5
144.1895 -1.5
144.2218 -1.5
144.2552 -1.5
144.2885 -1.5
144.3196 -1.5
144.3514 -1.5
144.3847 -1.5
144.4181 -1.5
144.4481 -1.5
144.4814 -1.5
144.5139 -1.5
144.5457 -1.5
144.579 -1.5
144.6123 -1.5
144.6419 -1.5
144.6741 -1.5
144.7074 -1.5
144.7407 -1.5
144.7733 -1.5
144.805 -1.5
144.8383 -1.5
144.8685 -1.5
144.9019 -1.5
144.9352 -1.5
144.9665 -1.5
144.9995 -1.5
145.0302 -1.5
145.0636 -1.5
145.0969 -1.5
145.1272 -1.5
145.1583 -1.5
145.1917 -1.5
145.225 -1.5
145.2546 -1.5
145.2847 -1.5
145.318 -1.5
145.3512 -1.5
145.3846 -1.5
145.4176 -1.5
145.4493 -1.5
145.4807 -1.5
145.5141 -1.5
145.5474 -1.5
145.5779 -1.5
145.6112 -1.5
145.6435 -1.5
145.6768 -1.5
145.7102 -1.5
145.7435 -1.5
145.7735 -1.5
145.8069 -1.5
145.8402 -1.5
145.8735 -1.5
145.9058 -1.5
145.9385 -1.5
145.9719 -1.5
146.0052 -1.5
146.0385 -1.5
146.0719 -1.5
146.1013 -1.5
146.1322 -1.5
146.1655 -1.5
146.1988 -1.5
146.2306 -1.5
146.2606 -1.5
146.2905 -1.5
146.3207 -1.5
146.3541 -1.5
146.3869 -1.5
146.4203 -1.5
146.4512 -1.5
146.4845 -1.5
146.5179 -1.5
146.5512 -1.5
146.5836 -1.5
146.6136 -1.5
146.647 -1.5
146.6803 -1.5
146.7136 -1.5
146.7453 -1.5
146.7747 -1.5
146.8056 -1.5
146.8389 -1.5
146.8723 -1.5
146.9056 -1.5
146.936 -1.5
146.9678 -1.5
147.0011 -1.5
147.0314 -1.5
147.0623 -1.5
147.0957 -1.5
147.129 -1.5
147.1623 -1.5
147.1924 -1.5
147.2252 -1.5
147.2574 -1.5
147.2868 -1.5
147.3202 -1.5
147.3494 -1.5
147.3802 -1.5
147.4103 -1.5
147.4433 -1.5
147.4766 -1.5
147.5098 -1.5
147.5405 -1.5
147.5707 -1.5
147.6031 -1.5
147.6365 -1.5
147.6689 -1.5
147.6994 -1.5
147.7291 -1.5
147.7606 -1.5
147.794 -1.5
147.8273 -1.5
147.8606 -1.5
147.894 -1.5
147.9273 -1.5
147.9601 -1.5
147.9915 -1.5
148.0248 -1.5
148.0555 -1.5
148.0888 -1.5
148.1195 -1.5
148.1519 -1.5
148.1837 -1.5
148.2141 -1.5
148.2474 -1.5
148.2807 -1.5
148.3115 -1.5
148.3425 -1.5
148.3759 -1.5
148.4092 -1.5
148.4425 -1.5
148.4748 -1.5
148.5064 -1.5
148.5397 -1.5
148.5731 -1.5
148.602 -1.5
148.6331 -1.5
148.6664 -1.5
148.6957 -1.5
148.729 -1.5
148.7623 -1.5
148.7914 -1.5
148.8214 -1.5
148.8534 -1.5
148.8867 -1.5
148.9201 -1.5
148.9534 -1.5
148.9848 -1.5
149.0174 -1.5
149.0508 -1.5
149.0841 -1.5
149.117 -1.5
149.1494 -1.5
149.1787 -1.5
149.2121 -1.5
149.2442 -1.5
149.2772 -1.5
149.3105 -1.5
149.341 -1.5
149.3743 -1.5
149.4077 -1.5
149.4384 -1.5
149.4699 -1.5
149.5032 -1.5
149.5366 -1.5
149.5672 -1.5
149.5975 -1.5
149.6301 -1.5
149.6623 -1.5
149.6956 -1.5
149.7253 -1.5
149.7587 -1.5
149.7903 -1.5
149.8231 -1.5
149.8564 -1.5
149.889 -1.5
149.9223 -1.5
149.9527 -1.5
149.986 -1.5
150.0194 -1.5
150.0522 -1.5
150.0842 -1.5
150.1175 -1.5
150.1471 -1.5
150.1804 -1.5
150.2112 -1.5
150.2421 -1.5
150.2754 -1.5
150.3086 -1.5
150.3419 -1.5
150.372 -1.5
150.4053 -1.5
150.4356 -1.5
150.4689 -1.5
150.5022 -1.5
150.5356 -1.5
150.5674 -1.5
150.5981 -1.5
150.631 -1.5
150.6643 -1.5
150.6943 -1.5
150.7273 -1.5
150.7606 -1.5
150.7917 -1.5
150.825 -1.5
150.8561 -1.5
150.8895 -1.5
150.9227 -1.5
150.9551 -1.5
150.9884 -1.5
151.0187 -1.5
151.0521 -1.5
151.0829 -1.5
151.1163 -1.5
151.1496 -1.5
151.1829 -1.5
151.2137 -1.5
151.247 -1.5
151.2803 -1.5
151.3137 -1.5
151.3443 -1.5
151.3774 -1.5
151.4066 -1.5
151.4378 -1.5
151.4711 -1.5
151.5045 -1.5
151.537 -1.5
151.5704 -1.7
151.6028 -1.7
151.6361 -1.7
151.6695 -1.7
151.6994 -1.7
151.7298 -1.7
151.761 -1.7
151.7944 -1.7
151.8252 -1.7
151.8563 -1.7
151.8896 -1.7
151.9201 -1.7
151.9534 -1.7
151.9825 -1.7
152.0142 -1.7
152.0452 -1.7
152.0786 -1.7
152.1119 -1.7
152.1452 -1.7
152.1786 -1.7
152.2119 -1.7
152.2425 -1.7
152.2759 -1.7
152.3092 -1.7
152.3425 -1.7
152.3755 -1.7
152.4059 -1.7
152.4393 -1.7
152.4687 -1.7
152.4989 -1.7
152.5301 -1.7
152.5635 -1.7
152.5968 -1.7
152.6301 -1.7
152.6618 -1.7
152.6951 -1.7
152.7272 -1.7
152.7605 -1.7
152.7908 -1.7
152.8205 -1.7
152.85 -1.7
152.8823 -1.7
152.9156 -1.7
152.9489 -1.7
152.9787 -1.7
153.0121 -1.7
153.0415 -1.7
153.0748 -1.7
153.1079 -1.5
153.1375 -0.85
153.1674 -0.85
153.1985 -0.2
153.2319 0.65
153.2627 0.65
153.2959 0.85
153.3292 0.85
153.3626 0.85
153.3959 0.4
153.4252 -0.4
153.4559 -0.4
153.4862 -0.4
153.5195 -0.4
153.5529 -0.4
153.5843 -0.4
153.6131 -0.4
153.6455 -0.4
153.6789 -0.4
153.7122 -0.4
153.7455 -0.4
153.7757 -0.4
153.8091 -0.4
153.8414 -0.4
153.8747 -0.4
153.9079 -0.4
153.9387 -0.4
153.9701 -0.4
154.0029 -0.4
154.0362 -0.4
154.0674 -0.4
154.1005 -0.4
154.1321 -0.4
154.1633 -0.4
154.1966 -0.4
154.2299 -0.4
154.2618 -0.4
154.2951 -0.4
154.3279 -0.4
154.3613 -0.4
154.3902 -0.4
154.4235 -0.4
154.4552 -0.4
154.4877 -0.4
154.5211 -0.4
154.5544 -0.4
154.5866 -0.4
154.6196 -0.4
154.6503 -0.4
154.6836 -0.4
154.717 -0.4
154.7503 -0.4
154.7836 -0.4
154.817 -0.4
154.8488 -0.4
154.8811 -0.4
154.9121 -0.4
154.9446 -0.4
154.9779 -0.4
155.0103 -0.4
155.0406 -0.4
155.0708 -0.4
155.1027 -0.4
155.136 -0.4
155.1678 -0.4
155.1999 -0.4
155.2307 -0.4
155.264 -0.4
155.2974 -0.4
155.3298 -0.4
155.3616 -0.4
155.3922 -0.4
155.4239 -0.4
155.4572 -0.4
155.4906 -0.4
155.5239 -0.4
155.5572 -0.4
155.5878 -0.4
155.6198 -0.4
155.6531 -0.4
155.6864 -0.4
155.7197 -0.4
155.7503 -0.4
155.7805 -0.4
155.8102 -0.4
155.8397 -0.4
155.873 -0.4
155.9064 -0.4
155.9369 -0.4
155.9678 -0.4
155.9999 -0.4
156.0332 -0.4
156.0637 -0.4
156.0952 -0.4
156.1255 -0.4
156.1566 -0.4
156.1899 -0.4
156.2193 -0.4
156.2526 -0.4
156.2859 -0.4
156.3158 -0.4
156.3491 -0.4
156.3809 -0.4
156.4143 -0.4
156.447 -0.4
156.4803 -0.4
156.5137 -0.4
156.547 -0.4
156.5775 -0.4
156.6089 -0.4
156.6396 -0.4
156.673 -0.4
156.7063 -0.4
156.7377 -0.4
156.771 -0.4
156.8003 -0.4
156.8336 -0.4
156.8633 -0.4
156.8923 -0.4
156.9256 -0.4
156.9582 -0.4
156.9915 -0.4
157.0218 -0.4
157.0529 -0.4
157.0863 -0.4
157.1191 -0.4
157.1524 -0.4
157.1857 -0.4
157.2191 -0.4
157.252 -0.4
157.2854 -0.4
157.3187 -0.4
157.3504 -0.4
157.3817 -0.4
157.4128 -0.4
157.4462 -0.4
157.4795 -0.4
157.5107 -0.4
157.541 -0.4
157.5732 -0.4
157.6049 -0.4
157.6382 -0.4
157.6714 -0.4
157.7016 -0.4
157.7335 -0.4
157.7669 -0.4
157.8002 -0.4
157.8335 -0.4
157.8635 -0.4
157.8968 -0.4
157.9301 -0.4
157.9635 -0.4
157.9968 -0.4
158.0267 -0.4
158.0601 -0.4
158.0934 -0.4
158.1268 -0.4
158.1585 -0.4
158.1895 -0.4
158.2194 -0.4
158.2525 -0.4
158.2859 -0.4
158.317 -0.4
158.3462 -0.4
158.3795 -0.4
158.4109 -0.4
158.4442 -0.4
158.4776 -0.4
158.5072 -0.4
158.5363 -0.4
158.5697 -0.4
158.603 -0.4
158.6324 -0.4
158.6623 -0.4
158.6933 -0.65
158.7223 -0.65
158.7557 -0.65
158.7864 -0.65
158.8198 -0.65
158.8506 -0.65
158.8839 -0.65
158.9172 -0.65
158.9506 -0.65
158.9839 -0.65
159.017 -0.65
159.0503 -0.65
159.0836 -0.65
159.1129 -0.65
159.1462 -0.65
159.1784 -0.65
159.2118 -0.65
159.2451 -0.65
159.2784 -0.65
159.3074 -0.65
159.3404 -0.65
159.373 -0.65
159.4063 -0.65
159.4388 -0.65
159.4721 -0.65
159.5015 -0.65
159.5323 -0.65
159.5656 -0.65
159.5951 -0.65
159.6248 -0.65
159.655 -0.65
159.686 -0.65
159.7193 -0.65
159.7491 -0.65
159.7824 -0.65
159.8135 -0.65
159.8441 -0.65
159.8775 -0.65
159.9095 -0.65
159.9428 -0.65
159.9747 -0.65
160.008 -0.65
160.0413 -0.65
160.0747 -0.65
160.1048 -0.65
160.1364 -0.65
160.1666 -0.65
160.1999 -0.65
160.2324 -0.65
160.2626 -0.65
160.296 -0.65
160.3293 -0.65
160.3626 -0.65
160.396 -0.65
160.4252 -0.65
160.4542 -0.65
160.4876 -0.65
160.5209 -0.65
160.5542 -0.65
160.5872 -0.65
160.6202 -0.65
160.6509 -0.65
160.6843 -0.65
160.7176 -0.65
160.747 -0.65
160.7773 -0.65
160.8086 -0.65
160.8419 -0.65
160.8752 -0.65
160.9064 -0.65
160.9379 -0.65
160.9696 -0.65
161.003 -0.65
161.035 -0.65
161.0683 -0.65
161.0978 -0.65
161.1281 -0.65
161.1614 -0.65
161.1913 -0.65
161.2231 -0.65
161.2564 -0.65
161.2897 -0.65
161.3231 -0.65
161.354 -0.65
161.3852 -0.65
161.4185 -0.65
161.4519 -0.65
161.4852 -0.65
161.5157 -0.65
161.549 -0.65
161.5797 -0.65
161.6111 -0.65
161.6445 -0.65
161.6756 -0.65
161.7048 -0.65
161.7365 -0.65
161.7672 -0.65
161.8005 -0.65
161.8338 -0.65
161.8672 -0.65
161.8978 -0.65
161.9306 -0.65
161.964 -0.65
161.993 -0.65
162.0258 -0.65
162.0592 -0.65
162.0925 -0.65
162.1258 -0.65
162.1592 -0.65
162.1875 -0.65
162.2208 -0.65
162.2541 -0.65
162.2875 -0.65
162.3181 -0.65
162.3504 -0.65
162.3837 -0.65
162.4147 -0.65
162.448 -0.65
162.4787 -0.65
162.5121 -0.65
162.5429 -0.65
162.5721 -0.65
162.6054 -0.65
162.6387 -0.65
162.6721 -0.65
162.701 -0.65
162.7323 -0.65
162.7657 -0.65
162.7983 -0.65
162.8286 -0.65
162.8582 -0.65
162.8891 -0.65
162.9224 -0.65
162.9557 -0.65
162.9868 -0.65
163.0202 -0.65
163.0535 -0.65
163.0868 -0.65
163.1185 -0.65
163.1503 -0.65
163.1837 -0.65
163.217 -0.65
163.2503 -0.65
163.2811 -0.65
163.3126 -0.65
163.342 -0.65
163.3754 -0.65
163.4087 -0.65
163.4378 -0.65
163.4711 -0.65
163.5011 -0.65
163.53 -0.65
163.5633 -0.65
163.5959 -0.65
163.6278 -0.65
163.6611 -0.65
163.6945 -0.65
163.7278 -0.65
163.7593 -0.65
163.7888 -0.65
163.8221 -0.65
163.8526 -0.65
163.886 -0.65
163.9176 -0.65
163.9505 -0.65
163.9839 -0.65
164.0172 -0.65
164.0505 -0.65
164.0838 -0.65
164.1133 -0.65
164.144 -0.65
164.175 -0.65
164.2083 -0.65
164.2384 -0.65
164.2683 -0.65
164.3006 -0.65
164.3322 -0.65
164.3655 -0.65
164.3955 -0.65
164.4274 -0.65
164.4584 -0.65
164.4897 -0.65
164.5231 -0.65
164.5564 -0.65
164.586 -0.65
164.6193 -0.65
164.6502 -0.65
164.6835 -0.65
164.7163 -0.65
164.7479 -0.65
164.7797 -0.65
164.813 -0.65
164.8463 -0.65
164.8778 -0.65
164.909 -0.65
164.9389 -0.65
164.9695 -0.65
165.0028 -0.65
165.0361 -0.65
165.0654 -0.65
165.0987 -0.65
165.1304 -0.65
165.1637 -0.65
165.1947 -0.65
165.228 -0.65
165.258 -0.65
165.2879 -0.65
165.3212 -0.65
165.3501 -0.65
165.3804 -0.65
165.4105 -0.65
165.442 -0.65
165.4753 -0.65
165.5051 -0.65
165.5375 -0.65
165.5695 -0.65
165.6005 -0.65
165.6339 -0.65
165.6672 -0.65
165.6974 -0.65
165.7272 -0.65
165.7579 -0.65
165.7912 -0.65
165.8246 -0.65
165.8545 -0.65
165.8867 -0.65
165.9193 -0.65
165.9526 -0.65
165.9842 -0.65
166.0148 -0.65
166.0482 -0.65
166.0784 -0.65
166.1118 -0.65
166.1451 -0.65
166.1784 -0.65
166.2085 -0.65
166.2394 -0.65
166.2727 -0.65
166.3044 -0.65
166.3357 -0.65
166.3658 -0.65
166.3967 -0.65
166.43 -0.65
166.4615 -0.65
166.4906 -0.65
166.5216 -0.65
166.5522 -0.65
166.5855 -0.65
166.615 -0.65
166.6463 -0.65
166.6796 -0.65
166.7129 -0.65
166.7463 -0.65
166.7771 -0.65
166.8069 -0.65
166.8368 -0.65
166.867 -0.65
166.9003 -0.65
166.9301 -0.65
166.9602 -0.65
166.9905 -0.65
167.021 -0.65
167.0543 -0.65
167.0876 -0.65
167.1176 -0.65
167.148 -0.65
167.179 -0.65
167.2123 -0.65
167.2436 -0.65
167.2766 -0.65
167.3071 -0.65
167.3376 -0.65
167.371 -0.65
167.4041 -0.65
167.4335 -0.65
167.4655 -0.65
167.4974 -0.65
167.5307 -0.65
167.5614 -0.65
167.5922 -0.65
167.6224 -0.65
167.6535 -0.65
167.6868 -0.65
167.7189 -0.65
167.7522 -0.65
167.7822 -0.65
167.8142 -0.65
167.8475 -0.65
167.8771 -0.65
167.9062 -0.4
167.938 -0.4
167.9699 -0.4
168.0033 -0.4
168.0366 -0.4
168.0664 -0.4
168.0957 -0.2
168.1267 -0.2
168.1601 -0.2
168.1934 -0.2
168.2267 -0.2
168.26 -0.2
168.292 -0.2
168.3253 -0.2
168.3559 -0.2
168.3886 -0.2
168.4219 -0.2
168.453 -0.2
168.4863 -0.2
168.5196 -0.2
168.5491 -0.2
168.5784 -0.2
168.6091 -0.2
168.6425 -0.2
168.6757 -0.2
168.7083 -0.2
168.7413 -0.2
168.7719 0
168.8053 0
168.8355 0.2
168.865 0.4
168.8983 0.4
168.9305 0.4
168.9638 0.4
168.9938 0.4
169.0269 0.4
169.0602 0.4
169.0927 0.4
169.1261 0.4
169.1552 0.4
169.1877 0.4
169.2194 0.4
169.2501 0.4
169.2835 0.4
169.3158 0.4
169.3492 0.4
169.3825 0.4
169.4158 0.4
169.4492 0.4
169.4787 0.4
169.5121 0.4
169.5452 0.4
169.5785 0.4
169.6118 0.4
169.6417 0.4
169.6714 0.4
169.7026 0.4
169.7359 0.4
169.7693 0.4
169.8001 0.4
169.8334 0.4
169.8646 0.4
169.8968 0.4
169.9301 0.4
169.9631 0.4
169.9964 0.4
170.0265 0.4
170.0584 0.4
170.0917 0.4
170.1243 0.4
170.1541 0.4
170.1847 0.4
170.214 0.4
170.2473 0.4
170.28 0.4
170.3099 0.4
170.341 0.4
170.3744 0.4
170.4077 0.4
170.4399 0.4
170.4722 0.4
170.5056 0.4
170.5389 0.4
170.5723 0.4
170.6029 0.4
170.6362 0.4
170.6682 0.4
170.6992 0.85
170.7326 1.3
170.7659 1.3
170.7983 1.7
170.8317 1.95
170.865 1.95
170.8983 1.95
170.929 1.95
170.9588 1.95
170.9921 1.95
171.0255 1.95
171.0588 1.95
171.0878 1.95
171.1197 1.95
171.1531 1.95
171.1835 1.95
171.2168 1.95
171.2469 1.95
171.2785 1.95
171.3101 1.95
171.342 1.95
171.3754 1.95
171.4074 1.95
171.4406 1.95
171.4739 1.95
171.5054 1.95
171.5388 1.95
171.5695 1.95
171.6015 1.95
171.633 1.95
171.6664 1.95
171.6997 1.95
171.7298 1.95
171.7614 1.95
171.7924 1.95
171.8227 1.95
171.8561 1.95
171.8894 1.95
171.9218 1.95
171.9512 1.95
171.9842 1.95
172.0175 1.95
172.0509 1.95
172.0842 2.15
172.1176 2.15
172.1503 2.4
172.1837 2.6
172.2136 2.6
172.2429 2.6
172.2734 3.05
172.3038 3.05
172.3371 3.25
172.3688 3.45
172.399 3.45
172.4305 3.9
172.4639 4.55
172.4972 5
172.5262 5
172.558 5.2
172.5894 5.2
172.6227 5.85
172.6561 6.75
172.6887 6.75
172.722 7.85
172.7532 8.95
172.7843 8.95
172.8177 9.8
172.8499 10.25
172.8826 10.25
172.914 10.45
172.9448 10.7
172.9781 10.7
173.0091 11.1
173.0425 11.35
173.0736 11.35
173.1069 11.35
173.1402 11.55
173.1723 12.2
173.2056 12.2
173.2362 13.3
173.2683 14.4
173.3016 14.4
173.3318 15.5
173.3651 16.35
173.3973 16.35
173.4306 16.8
173.464 17.25
173.4973 17.25
173.5288 17.25
173.5619 17.45
173.5948 17.45
173.6282 17.65
173.6597 18.3
173.6923 18.3
173.7256 19
173.7574 19.65
173.7907 20.05
173.8209 20.05
173.8518 20.5
173.8808 20.5
173.913 21.15
173.9464 22.05
173.9759 22.05
174.0083 22.9
174.0392 23.35
174.0726 23.35
174.1059 24
174.1378 24.65
174.1695 24.65
174.2027 24.9
174.236 25.1
174.2694 25.1
174.3027 25.3
174.336 25.55
174.3653 25.55
174.3987 25.95
174.432 26.4
174.4615 26.85
174.494 26.85
174.5256 27.3
174.5555 27.3
174.5888 27.5
174.6196 27.5
174.6498 27.5
174.6832 27.5
174.7165 27.5
174.7498 27.5
174.7823 27.5
174.8147 27.5
174.8465 27.5
174.8783 27.5
174.9116 27.5
174.9449 27.5
174.9779 27.5
175.0085 27.5
175.0411 27.5
175.0744 27.5
175.1052 27.5
175.1346 27.5
175.1645 27.5
175.1965 27.7
175.2298 27.95
175.2631 27.95
175.293 28.15
175.3226 28.6
175.353 28.6
175.3863 29.05
175.4181 29.05
175.4514 29.45
175.4847 29.9
175.5151 29.9
175.5484 30.55
175.5794 31.2
175.6083 31.2
175.6411 31.65
175.6736 31.65
175.7069 31.65
175.7397 31.65
175.7697 31.65
175.7996 31.65
175.8326 31.65
175.8659 31.65
175.8963 31.65
175.9273 31.65
175.9579 31.65
175.9893 31.65
176.0226 31.65
176.0532 31.65
176.0827 31.65
176.116 31.45
176.1494 31
176.1827 30.55
176.216 30.55
176.2459 30.1
176.2773 29.9
176.3092 29.9
176.3425 29.9
176.3724 29.9
176.4044 29.9
176.4377 30.1
176.4682 30.55
176.5015 30.55
176.5323 31
176.5617 31.45
176.594 31.45
176.6257 31.45
176.6591 31.45
176.6906 31.45
176.7235 31.45
176.7569 31.45
176.7902 31.45
176.8235 31.45
176.8535 31.45
176.8857 31.45
176.9182 31.45
176.9515 31.45
176.9848 31.45
177.0181 31.45
177.0515 31.45
177.0837 31.45
177.115 31.45
177.1484 31.45
177.1802 31.45
177.2113 31.45
177.2446 31.45
177.2775 31.45
177.3108 31.45
177.3427 31.45
177.3761 31.45
177.4079 31.45
177.4381 31.45
177.4715 31.45
177.5025 31.45
177.5325 31.45
177.5648 31.45
177.5958 31.45
177.6291 31.45
177.66 31.45
177.6933 31.45
177.7246 31.45
177.7554 31.45
177.7888 31.45
177.8192 31.45
177.8524 31.45
177.8829 31.45
177.9147 31.45
177.9481 31.45
177.9814 31.45
178.0107 31.45
178.0416 31.45
178.0742 31.45
178.1076 31.45
178.1409 31.45
178.171 31.45
178.2043 31.45
178.235 31.45
178.2683 31.45
178.299 31.45
178.3302 31.45
178.3616 31.45
178.392 31.45
178.4253 31.45
178.4587 31.45
178.4891 31.45
178.5222 31.45
178.5553 31.45
178.5886 31.45
178.6206 31.45
178.6511 31.45
178.6844 31.45
178.7156 31.45
178.7489 31.45
178.7811 31.45
178.8144 31.45
178.8442 31.45
178.8756 31.45
178.909 31.45
178.9423 31.65
178.9722 31.65
179.0036 31.85
179.0369 31.85
179.0703 32.1
179.1021 32.5
179.1347 32.5
179.1681 32.5
179.1982 32.5
179.2316 32.5
179.2611 32.5
179.2944 32.5
179.327 32.75
179.3587 32.75
179.3921 32.75
179.4229 32.75
179.4557 32.75
179.4891 32.75
179.5224 32.75
179.5557 32.75
179.588 32.75
179.6203 32.75
179.6536 32.75
179.6843 32.75
179.7176 32.75
179.751 32.75
179.7831 32.95
179.8147 33.2
179.847 33.2
179.8803 33.4
179.9107 33.4
179.944 33.4
179.9756 33.6
180.006 33.6
180.0393 33.6
180.0701 33.6
180.1013 33.6
180.1347 33.6
180.1678 33.6
180.2011 33.85
180.2342 33.85
180.2661 33.85
180.2969 33.85
180.3284 33.85
180.3618 33.85
180.3951 33.85
180.4243 33.6
180.4552 33.6
180.4885 33.2
180.5218 32.5
180.5551 32.5
180.5885 32.1
180.6207 32.1
180.6506 32.1
180.6839 32.1
180.7149 32.1
180.7452 32.1
180.7777 32.1
180.809 32.1
180.8423 32.1
180.8723 32.5
180.901 33.2
180.9325 33.2
180.9646 33.6
180.9979 34.05
181.0313 34.05
181.0646 34.05
181.0963 34.05
181.1276 34.05
181.161 33.85
181.1909 33.85
181.2228 33.85
181.2545 33.6
181.2844 33.6
181.3178 33.6
181.3483 33.6
181.3789 33.6
181.409 33.6
181.4424 33.6
181.4757 33.6
181.509 33.6
181.5387 33.6
181.5679 33.6
181.6013 33.6
181.6346 33.6
181.6644 33.85
181.6977 33.85
181.7304 33.85
181.7602 33.85
181.7936 33.85
181.8241 33.85
181.8575 33.85
181.8878 33.85
181.9211 33.4
181.9545 32.95
181.9859 32.3
182.0192 32.3
182.0526 32.1
182.0859 32.1
182.1192 32.1
182.1512 32.1
182.1824 32.1
182.2158 32.1
182.2491 31.65
182.2824 31.2
182.3132 31.2
182.3454 31
182.3758 31.45
182.4072 31.45
182.4406 31.65
182.4712 32.1
182.503 32.1
182.5363 32.75
182.5691 33.2
182.6025 33.6
182.6328 33.6
182.6638 33.85
182.6947 33.85
182.7263 34.05
182.7597 34.5
182.7898 34.5
182.8221 34.7
182.8548 35.35
182.8878 35.35
182.9212 35.8
182.9545 36.25
182.9846 36.45
183.0159 36.45
183.0461 36.45
183.0794 36.45
183.1083 36.45
183.1413 36.45
183.1747 36.45
183.208 35.8
183.2413 34.95
183.2725 33.85
183.3021 33.85
183.3327 33.2
183.366 33.2
183.3993 33.2
183.4298 32.95
183.4599 32.95
183.4894 32.3
183.5228 31.45
183.5561 29.7
183.5855 29.7
183.6151 28.35
183.6455 28.35
183.6761 27.95
183.7095 27.7
183.7428 27.7
183.7722 27.7
183.8026 27.7
183.8327 27.7
183.866 27.7
183.8961 27.7
183.9267 27.7
183.9599 27.7
183.9914 27.7
184.0247 27.7
184.058 27.7
184.0874 27.95
184.1208 27.95
184.1532 28.35
184.1866 29.05
184.2199 29.05
184.2491 29.45
184.2819 29.45
184.3152 29.45
184.3485 29.45
184.3802 29.45
184.4115 29.45
184.4409 29.25
184.4726 28.35
184.506 28.35
184.5393 26.2
184.5703 23.15
184.6009 23.15
184.6303 20.5
184.6637 17.65
184.6964 17.65
184.7297 15.9
184.7631 15.25
184.7964 15.25
184.8297 13.95
184.8625 12.65
184.8935 12.65
184.9254 10.25
184.9574 6.95
184.9907 6.95
185.022 4.55
185.0553 3.45
185.0887 3.45
185.1209 3.45
185.1542 3.7
185.1846 3.9
185.2173 3.9
185.2506 3.9
185.2806 3.9
185.314 3.7
185.3457 2.8
185.3791 1.3
185.4084 1.3
185.4394 -1.3
185.4727 -3.25
185.504 -3.25
185.5361 -5.45
185.5695 -8.3
185.5992 -8.3
185.6325 -11.75
185.6658 -13.75
185.6992 -13.75
185.7303 -15.05
185.7637 -16.6
185.797 -16.6
185.8269 -19.2
185.857 -21.4
185.8901 -21.4
185.92 -22.9
185.9534 -23.55
185.9852 -23.55
186.0185 -23.55
186.0487 -23.55
186.0804 -23.55
186.1137 -23.55
186.143 -23.55
186.1744 -23.55
186.2048 -23.55
186.2353 -23.55
186.2686 -23.55
186.302 -23.35
186.3336 -22.7
186.3635 -22.7
186.3951 -21.6
186.4285 -21.6
186.4583 -20.3
186.4902 -20.05
186.521 -20.05
186.5544 -20.95
186.5877 -22.7
186.6179 -22.7
186.6481 -25.3
186.6814 -28.8
186.7147 -34.05
186.748 -34.05
186.7814 -38
186.8147 -42.35
186.8445 -42.35
186.8779 -44.75
186.9112 -45.4
186.9404 -45.4
186.97 -45.4
187.0002 -45.4
187.0336 -45.4
187.0669 -45.4
187.1002 -45.4
187.1328 -45.4
187.1621 -45.4
187.1954 -45.4
187.2288 -45.4
187.2621 -45.4
187.2931 -45.85
187.3236 -45.85
187.3547 -46.7
187.388 -47.6
187.4175 -47.8
187.4475 -47.8
187.4783 -47.8
187.5087 -47.8
187.542 -47.8
187.5753 -47.8
187.6074 -47.8
187.6366 -47.8
187.6667 -47.8
187.7001 -47.8
187.7316 -47.8
187.7629 -47.8
187.7962 -47.8
187.8295 -47.8
187.8629 -49.55
187.8959 -51.75
187.9292 -51.75
187.9609 -53.7
187.9926 -55.7
188.0259 -55.7
188.0592 -57
188.0883 -57.65
188.1188 -57.65
188.1508 -59.15
188.1842 -60.5
188.2165 -60.5
188.2498 -60.9
188.2832 -60.9
188.3151 -60.9
188.3484 -61.6
188.377 -62.65
188.4093 -62.65
188.4426 -63.75
188.4718 -64.85
188.5051 -64.85
188.5384 -65.75
188.5718 -65.95
188.6021 -65.95
188.6329 -65.95
188.6662 -65.75
188.6968 -65.75
188.7286 -65.75
188.7585 -65.3
188.7918 -65.3
188.8252 -64.2
188.8545 -63.1
188.886 -63.1
188.9173 -60.05
188.9495 -56.75
188.9828 -56.75
189.0129 -52.85
189.0434 -49.15
189.0767 -49.15
189.1072 -44.75
189.1405 -41.25
189.1722 -41.25
189.2017 -39.5
189.2334 -37.55
189.2635 -37.55
189.2968 -37.55
189.3257 -37.55
189.3568 -37.55
189.3886 -37.55
189.4219 -37.55
189.4552 -37.55
189.4855 -37.55
189.5154 -37.55
189.5452 -37.55
189.5756 -37.55
189.6089 -37.55
189.6423 -37.55
189.6738 -37.55
189.7031 -37.55
189.7339 -37.55
189.7673 -37.55
189.7993 -37.55
189.8315 -37.55
189.8648 -37.55
189.8981 -37.55
189.9315 -37.55
189.964 -36.9
189.9973 -36.25
190.0307 -36.25
190.064 -35.15
190.0974 -33.85
190.1291 -33.85
190.1588 -32.75
190.1895 -32.1
190.2193 -32.1
190.2526 -31.85
190.2824 -31.85
190.3122 -31.85
190.3447 -31.85
190.3775 -31.85
190.4108 -31.85
190.4423 -31.85
190.4755 -31.85
190.5088 -31.85
190.5421 -31.85
190.5755 -31.85
190.6088 -31.85
190.6422 -31.85
190.6743 -31.85
190.7077 -31.85
190.741 -31.85
190.7744 -32.1
190.8045 -32.75
190.8344 -32.75
190.8651 -33.85
190.8985 -34.25
190.9318 -34.25
190.9646 -34.5
190.9979 -34.5
191.0313 -34.5
191.0646 -34.5
191.0979 -34.5
191.1282 -34.5
191.1581 -34.5
191.1915 -34.5
191.2248 -34.5
191.2536 -34.5
191.2839 -34.25
191.3138 -34.25
191.3472 -33.85
191.3805 -33.4
191.4116 -33.4
191.4405 -33.2
191.4735 -33.2
191.5049 -33.2
191.5383 -33.2
191.5679 -33.2
191.6012 -33.2
191.6346 -33.2
191.6649 -33.2
191.6982 -33.2
191.7273 -33.2
191.7599 -33.2
191.7915 -33.2
191.8249 -33.2
191.8582 -33.2
191.8901 -33.2
191.9229 -33.2
191.9563 -33.2
191.987 -33.2
192.0204 -33.2
192.0504 -33.2
192.0819 -33.2
192.1128 -33.2
192.1452 -33.2
192.1785 -33.2
192.2119 -33.2
192.2439 -33.2
192.2771 -33.2
192.307 -33.2
192.3403 -33.2
192.3737 -33.2
192.407 -33.2
192.4376 -33.2
192.4707 -33.2
192.504 -33.2
192.5345 -33.2
192.5678 -33.2
192.6008 -33.2
192.6328 -33.2
192.6661 -33.2
192.6994 -33.2
192.7317 -33.2
192.7622 -33.2
192.7923 -33.2
192.8257 -33.2
192.8578 -33.2
192.8882 -33.2
192.9215 -33.2
192.9519 -33.2
192.9852 -33.2
193.017 -33.2
193.0503 -33.2
193.0825 -33.2
193.1159 -33.2
193.1492 -33.2
193.1825 -33.2
193.2132 -33.2
193.244 -33.2
193.2738 -33.2
193.3072 -33.2
193.3382 -32.95
193.3679 -32.95
193.3998 -32.5
193.4317 -32.5
193.4651 -31.45
193.4982 -30.35
193.5315 -29.05
193.5624 -29.05
193.5941 -27.95
193.6274 -26.85
193.6571 -26.85
193.6875 -25.75
193.7195 -25.75
193.7528 -24.9
193.7862 -24.45
193.8176 -24.45
193.8466 -24.45
193.8782 -24.45
193.9109 -24.45
193.9442 -24.45
193.9776 -24.45
194.0109 -24.45
194.0433 -24.45
194.0766 -24.45
194.11 -24.65
194.1405 -24.65
194.1738 -24.9
194.2071 -25.1
194.2393 -25.1
194.2727 -25.1
194.3029 -25.1
194.332 -25.1
194.3619 -25.1
194.3924 -25.1
194.4258 -25.1
194.4552 -25.1
194.4886 -25.1
194.5217 -25.1
194.5515 -25.1
194.5848 -25.1
194.6181 -25.1
194.6515 -25.1
194.6848 -25.1
194.7182 -25.1
194.7503 -25.1
194.7836 -25.1
194.8125 -25.1
194.8458 -25.1
194.8792 -25.1
194.9085 -25.1
194.9418 -25.1
194.9724 -25.1
195.0027 -25.1
195.036 -25.1
195.067 -25.1
195.1003 -25.1
195.1324 -25.1
195.1645 -24.9
195.1979 -24.45
195.2312 -24
195.2606 -24
195.2905 -24
195.3215 -24
195.3548 -24
195.3874 -24
195.4207 -24
195.4526 -24
195.4836 -24
195.517 -24
195.5474 -24
195.5792 -24
195.6125 -24
195.6458 -24
195.6792 -24
195.7125 -24
195.7439 -24
195.7765 -24
195.8098 -24
195.8432 -24
195.8735 -24
195.9039 -24
195.9352 -24
195.9646 -24
195.9979 -24
196.0276 -24
196.0587 -24
196.0921 -24
196.1254 -24
196.1587 -24
196.1921 -24
196.2254 -24
196.2587 -24
196.2897 -23.55
196.3231 -22.9
196.3564 -22.9
196.3897 -22.25
196.419 -21.8
196.4523 -21.8
196.4856 -21.15
196.519 -20.75
196.5523 -20.3
196.5854 -20.3
196.6172 -20.05
196.6505 -19.85
196.6839 -19.85
196.7172 -19.85
196.7505 -19.85
196.7826 -19.85
196.8159 -19.85
196.8477 -19.85
196.8782 -19.85
196.9085 -19.85
196.9383 -19.85
196.9716 -19.85
197.0011 -19.85
197.0328 -19.85
197.0654 -19.85
197.096 -19.85
197.1293 -19.85
197.1611 -19.85
197.1945 -19.85
197.2278 -19.85
197.2611 -19.85
197.2945 -19.85
197.3268 -18.75
197.3573 -18.75
197.3875 -17.65
197.4197 -16.6
197.4531 -16.6
197.4864 -15.9
197.5197 -15.9
197.5515 -15.9
197.5818 -15.9
197.6151 -15.9
197.6481 -15.9
197.6814 -15.9
197.7144 -15.9
197.7459 -15.9
197.7792 -15.9
197.8125 -15.9
197.8436 -15.9
197.8769 -15.9
197.9063 -15.9
197.9396 -15.9
197.9729 -15.9
198.0011 -15.9
198.0345 -15.9
198.0659 -15.9
198.0992 -15.7
198.1298 -15.5
198.1631 -15.5
198.1918 -15.5
198.2224 -15.25
198.2557 -15.25
198.289 -15.25
198.319 -15.5
198.3491 -15.5
198.3798 -15.7
198.4131 -16.35
198.4465 -16.35
198.4777 -17.65
198.5085 -19.65
198.5417 -19.65
198.575 -21.8
198.6084 -25.1
198.6416 -25.1
198.674 -27.5
198.7074 -30.35
198.7407 -32.5
198.7698 -32.5
198.8 -34.5
198.8333 -34.5
198.8667 -36
198.9 -38
198.9293 -38
198.9626 -39.95
198.9934 -41.5
199.0247 -41.5
199.0581 -43.25
199.0885 -43.65
199.1205 -43.65
199.1507 -43.65
199.1831 -43.65
199.2165 -43.65
199.2498 -43.65
199.2831 -44.3
199.3165 -44.3
199.3469 -45.65
199.3803 -47.8
199.4124 -47.8
199.4423 -50.45
199.4756 -52.85
199.5064 -52.85
199.5397 -54.6
199.5705 -56.55
199.6023 -56.55
199.6357 -57.85
199.6676 -58.75
199.7009 -58.75
199.7312 -59.15
199.7622 -59.4
199.7955 -59.4
199.8288 -59.4
199.8622 -59.4
199.8941 -59.4
199.9235 -59.85
199.9547 -60.5
199.9863 -60.5
200.0196 -61.6
200.0523 -62.45
200.082 -62.45
200.1147 -63.3
200.1474 -64
200.1807 -64
200.2103 -64.4
200.2427 -64.65
200.276 -64.65
200.3081 -64.65
200.3414 -64.65
200.3747 -64.65
200.4039 -64.65
200.4348 -64.65
200.4681 -64.65
200.5014 -64.65
200.5325 -64.65
200.5658 -64.65
200.5973 -64.65
200.6279 -64.65
200.6612 -64.65
200.691 -64.65
200.723 -64.65
200.7563 -64.65
200.7862 -64.65
200.8195 -64.65
200.8514 -64.65
200.8801 -64.65
200.9129 -64.2
200.9454 -64.2
200.9787 -63.3
201.0121 -61.8
201.0418 -61.8
201.0716 -59.85
201.1049 -57.45
201.1382 -57.45
201.1706 -53.95
201.203 -49.55
201.2338 -49.55
201.2672 -45.2
201.3005 -40.15
201.3338 -40.15
201.3627 -35.6
201.396 -32.5
201.4294 -32.5
201.4627 -29.05
201.496 -26.85
201.5278 -23.35
201.5581 -23.35
201.5905 -20.95
201.6239 -19.65
201.6572 -19.65
201.6893 -19.4
201.7211 -19.4
201.7544 -19.4
201.7878 -19.4
201.8197 -19.4
201.8528 -19.4
201.8861 -19.4
201.9177 -19.4
201.951 -19.4
201.9843 -19.4
202.0164 -19.2
202.0465 -19.2
202.0799 -18.3
202.1132 -15.7
202.1465 -13.3
202.1764 -13.3
202.2093 -10.45
202.2391 -10.45
202.2724 -8.7
202.304 -6.3
202.3344 -6.3
202.3678 -4.15
202.3994 -2.6
202.4328 -2.6
202.4628 -1.05
202.4954 -0.85
202.5257 -0.85
202.5566 -0.85
202.59 -0.85
202.6197 -0.85
202.653 -0.85
202.6864 -0.85
202.7194 -0.85
202.7527 -0.85
202.7847 -0.65
202.8147 -0.65
202.8459 -0.65
202.877 -0.85
202.9103 -0.85
202.9437 -1.7
202.977 -2.15
203.0091 -2.15
203.0397 -2.8
203.073 -3.05
203.1039 -3.05
203.1373 -3.05
203.1706 -3.05
203.2025 -3.05
203.2359 -3.05
203.2681 -3.25
203.2996 -3.25
203.333 -3.25
203.3663 -3.25
203.3996 -3.25
203.4304 -3.25
203.4637 -3.25
203.4935 -3.25
203.5268 -3.05
203.5602 -1.95
203.5906 -0.65
203.621 -0.65
203.6544 0.2
203.6877 1.3
203.721 1.3
203.7533 1.3
203.786 1.3
203.8168 1.3
203.8495 1.3
203.8829 1.3
203.9162 1.3
203.9475 1.3
203.9799 1.3
204.0127 1.3
204.046 1.05
204.0793 1.05
204.11 1.05
204.1399 1.05
204.169 1.05
204.2024 1.05
204.2351 1.3
204.2684 1.3
204.298 1.3
204.3313 1.3
204.3647 1.3
204.3952 1.3
204.425 1.3
204.4583 1.3
204.4902 1.3
204.5235 1.3
204.5537 1.3
204.5848 1.3
204.6152 1.3
204.6475 1.3
204.6808 1.3
204.7136 1.05
204.742 0.65
204.7753 0.65
204.8086 0.2
204.842 -0.2
204.8718 -0.2
204.9024 -0.65
204.9332 -0.65
204.965 -0.85
204.9984 -0.85
205.0288 -0.85
205.0621 -0.85
205.0938 -0.85
205.1264 -0.85
205.1597 -0.85
205.1907 -0.85
205.22 -0.85
205.2533 -0.85
205.2854 -0.4
205.3187 0.85
205.349 0.85
205.3823 3.25
205.414 5.85
205.4474 5.85
205.4807 9.6
205.5104 12
205.5437 15.5
205.5731 15.5
205.6018 18.1
205.6352 18.1
205.6685 19.4
205.6999 19.4
205.7297 19.4
205.7623 18.55
205.7956 16.6
205.8255 16.6
205.858 14.4
205.8874 11.75
205.9207 11.75
205.9541 9.8
205.983 8.95
206.0163 8.95
206.0491 8.5
206.0819 8.5
206.1152 8.5
206.1472 8.5
206.1806 7.6
206.2127 7.6
206.2427 5.65
206.276 3.45
206.3093 1.5
206.3394 1.5
206.3682 -0.85
206.3983 -0.85
206.4316 -1.95
206.4611 -1.95
206.4913 -1.95
206.5218 -1.5
206.5518 -0.65
206.5851 -0.65
206.6184 1.5
206.6518 4.15
206.6822 4.15
206.7125 8.05
206.7459 11.75
206.7768 11.75
206.8099 14.6
206.8387 16.35
206.8709 16.35
206.9042 17.45
206.934 17.65
206.964 17.65
206.9974 17.65
207.0266 18.55
207.0599 18.55
207.0899 19.4
207.119 21.8
207.151 21.8
207.1827 23.55
207.216 26.4
207.2494 26.4
207.2803 27.7
207.3122 28.8
207.3455 28.8
207.3788 29.45
207.4102 29.9
207.4405 29.9
207.4733 30.55
207.5052 31.45
207.5385 31.45
207.5718 32.5
207.6044 34.25
207.6348 34.25
207.6681 36.25
207.7014 38.4
207.7318 38.4
207.7652 40.6
207.797 43
207.8288 43
207.8621 44.75
207.8918 46.95
207.9219 46.95
207.9532 49.35
207.9865 51.75
208.0198 51.75
208.0531 54.15
208.0838 57
208.1168 57
208.1501 60.25
208.1834 63.1
208.2148 66.15
208.247 66.15
208.2758 68.8
208.3091 72.3
208.3424 72.3
208.3758 76
208.4091 79.05
208.4416 79.05
208.4723 80.35
208.5056 80.8
208.539 80.8
208.5723 80.8
208.6038 80.8
208.6351 80.8
208.6684 81.25
208.7 82.1
208.731 82.1
208.7641 83.4
208.7957 85.15
208.829 85.15
208.8623 86.5
208.8932 88
208.9265 88
208.9553 88.45
208.9886 88.45
209.0186 88.45
209.0497 88.45
209.083 88.45
209.114 88.45
209.1474 88.45
209.179 88.45
209.2124 88.45
209.2409 88.25
209.2741 88.25
209.3074 88.25
209.3407 87.55
209.3713 86.05
209.4046 86.05
209.4378 83.4
209.4711 80.15
209.5005 80.15
209.5313 77.3
209.5644 75.1
209.5951 75.1
209.6284 73.8
209.6583 72.3
209.6884 72.3
209.7178 70.55
209.7511 68.15
209.7845 68.15
209.8178 64.2
209.8511 59.85
209.8844 59.85
209.9178 52.2
209.9511 43.65
209.9812 33.4
210.0099 33.4
210.0397 23.55
210.0731 16.15
210.1064 16.15
210.1397 7.6
210.1703 7.6
210.1994 -0.65
210.2301 -8.05
210.2634 -13.95
210.2967 -13.95
210.3301 -19
210.3634 -23.55
210.3967 -23.55
210.4301 -27.5
210.4618 -32.3
210.4942 -32.3
210.5267 -36.9
210.56 -41.7
210.5878 -45.4
210.6211 -45.4
210.6528 -48.9
210.6861 -53.7
210.7195 -53.7
210.7498 -57
210.78 -59.15
210.8133 -59.15
210.8467 -62.45
210.88 -65.95
210.9133 -65.95
210.9464 -69.45
210.9767 -71.85
211.0068 -71.85
211.0401 -73.35
211.0686 -74.45
211.0992 -74.45
211.1314 -75.35
211.1612 -77.3
211.1945 -77.3
211.2263 -79.5
211.2587 -82.35
211.2921 -82.35
211.322 -84.95
211.3553 -86.5
211.3862 -86.5
211.4161 -87.55
211.4494 -88.45
211.4806 -88.45
211.5139 -89.55
211.5432 -90.85
211.5762 -90.85
211.6065 -93.05
211.6357 -93.05
211.6691 -94.55
211.6991 -95.2
211.7279 -95.2
211.7578 -95.85
211.7877 -96.1
211.821 -96.1
211.8543 -96.1
211.8876 -95.85
211.9165 -95.85
211.9484 -95.65
211.9817 -95
212.0119 -95
212.0452 -93.7
212.0773 -91.5
212.1106 -91.5
212.1439 -88.45
212.1745 -82.1
212.2067 -82.1
212.2401 -74.9
212.2724 -68.55
212.3058 -60.5
212.3373 -60.5
212.3706 -53.7
212.4027 -45.65
212.436 -45.65
212.4693 -38.85
212.4985 -36.65
212.5318 -36.65
212.5615 -33.2
212.5949 -28.6
212.6282 -28.6
212.6575 -23.15
212.69 -18.1
212.7233 -18.1
212.7566 -12
212.7899 -6.95
212.8226 0.2
212.8559 0.2
212.8892 6.95
212.9198 12.85
212.9531 12.85
212.9834 19
213.0145 23.8
213.045 23.8
213.0745 28.6
213.1078 28.6
213.1397 35.6
213.173 40.6
213.2061 40.6
213.2358 46.95
213.2692 50
213.2996 50
213.3313 53.7
213.3646 56.35
213.3958 56.35
213.4291 60.7
213.4598 64.2
213.4899 64.2
213.5189 68.15
213.5492 71.4
213.5826 71.4
213.6124 75.55
213.645 80.15
213.675 80.15
213.7083 83.85
213.7416 86.05
213.7717 86.05
213.8041 86.9
213.8335 87.15
213.8665 87.15
213.8998 87.15
213.9301 87.35
213.9635 87.35
213.9953 88.45
214.0249 88.45
214.0583 90.2
214.0912 91.95
214.1198 91.95
214.1532 94.8
214.1865 97.4
214.2198 99.8
214.2524 99.8
214.2821 102.65
214.311 105.25
214.3423 105.25
214.3756 107.65
214.405 108.3
214.4383 108.3
214.4684 108.1
214.498 107.65
214.5314 107.65
214.5647 107.25
214.5946 107.25
214.6253 107.25
214.6561 107.25
214.6894 107.25
214.7209 107.25
214.7543 107.25
214.7876 107.25
214.8179 107.25
214.8512 107.25
214.8845 107.25
214.9164 107.25
214.9498 107.25
214.9831 107
215.0164 107
215.0457 107
215.0747 106.15
215.108 106.15
215.1378 105.9
215.1711 104.85
215.2044 104.85
215.2346 102.2
215.2633 98.05
215.2966 98.05
215.3299 92.8
215.3588 86.9
215.3882 86.9
215.4215 81.25
215.4516 76.65
215.485 76.65
215.518 69.9
215.5501 64
215.5814 64
215.6148 59.6
215.6481 58.95
215.6783 58.95
215.7101 58.5
215.7397 58.5
215.773 58.5
215.8063 58.5
215.8397 58.5
215.8711 58.5
215.9045 58.5
215.9369 58.1
215.9702 57.2
215.9985 57.2
216.0278 55
216.0587 52.2
216.092 52.2
216.1253 49.55
216.1567 46.3
216.1873 46.3
216.2158 44.3
216.2457 44.3
216.2791 42.15
216.3091 39.5
216.3381 39.5
216.3688 36.45
216.4021 34.25
216.4355 29.9
216.4688 29.9
216.5021 28.35
216.5316 28.35
216.5611 27.3
216.5944 25.75
216.6241 25.75
216.6564 23.55
216.6898 20.3
216.7217 20.3
216.755 17.65
216.7853 15.9
216.8155 15.9
216.8488 15.25
216.8804 15.25
216.9137 15.25
216.9471 15.05
216.9764 13.75
217.0067 13.75
217.04 13.1
217.0733 12
217.1067 12
217.1362 12
217.1655 12
217.1989 12
217.2322 12
217.2604 12.2
217.2901 12.2
217.3211 12.65
217.3504 12.65
217.3838 13.5
217.4171 14.15
217.4504 14.85
217.4818 14.85
217.5116 15.25
217.5449 15.9
217.5755 15.9
217.6089 16.15
217.641 16.15
217.6743 16.15
217.7077 16.15
217.741 16.35
217.7711 16.35
217.8002 16.6
217.8291 17.65
217.8624 17.65
217.8933 19.65
217.9218 21.8
217.9539 21.8
217.9846 25.1
218.0179 29.25
218.0485 29.25
218.0793 32.75
218.1083 37.35
218.1384 37.35
218.1717 41.9
218.2017 46.3
218.2319 46.3
218.2629 48.9
218.2923 48.9
218.3256 51.95
218.3568 55.45
218.3857 55.45
218.4151 58.75
218.4454 58.75
218.4788 64
218.508 70.1
218.5378 70.1
218.5706 75.8
218.6006 80.8
218.6339 87.8
218.663 87.8
218.6939 94.15
218.7272 94.15
218.7568 103.95
218.7901 111.8
218.8234 111.8
218.8533 120.1
218.8864 126.25
218.9191 126.25
218.9525 128.85
218.9836 129.3
219.0156 129.3
219.047 131.05
219.079 136.5
219.1124 136.5
219.1432 141.3
219.1723 141.3
219.2047 146.75
219.2335 152.45
219.2669 152.45
219.2999 158.55
219.3281 162.05
219.358 162.05
219.3889 167.1
219.4222 170.15
219.4545 170.15
219.4848 171.9
219.5145 171.9
219.5457 174.1
219.5791 175.6
219.6105 177.15
219.6439 177.15
219.6757 178.25
219.709 179.1
219.7423 179.1
219.7753 180
219.8042 181.05
219.8355 181.05
219.8667 181.95
219.9 182.6
219.9298 182.6
219.9589 182.8
219.9884 182.8
220.0217 182.8
220.055 182.8
220.0861 182.6
220.1192 182.6
220.1495 182.15
220.1826 182.15
220.216 181.7
220.249 181.3
220.278 181.3
220.3098 181.05
220.3402 181.05
220.3735 181.05
220.4068 181.05
220.4356 181.05
220.4674 181.05
220.4982 181.05
220.5315 181.05
220.5648 181.05
220.5961 181.05
220.6264 181.05
220.6588 181.05
220.6922 181.05
220.7215 180.85
220.7506 180.85
220.7804 180.85
220.8106 180.85
220.8439 180.85
220.8731 180.85
220.902 180.85
220.9354 180.85
220.9687 180.85
221.002 180.85
221.031 180.85
221.0603 180.85
221.0904 180.85
221.1237 180.85
221.157 180.85
221.1904 180.4
221.2195 180.4
221.2501 179.75
221.2796 179.75
221.3129 178
221.3453 174.75
221.3786 174.75
221.4071 169.7
221.4374 162.3
221.4708 162.3
221.4998 152
221.5331 139.55
221.5665 139.55
221.5963 128.65
221.6296 116.4
221.663 109.2
221.6926 109.2
221.7236 104.15
221.7563 104.15
221.7896 98.95
221.8218 89.1
221.8524 89.1
221.8858 76.85
221.9191 67.9
221.9524 55.7
221.9817 55.7
222.012 41.5
222.0453 41.5
222.0766 26.2
222.11 16.15
222.1399 16.15
222.1733 -5.45
222.2066 -12
222.2399 -12
222.2732 -13.5
222.3066 -18.1
222.3399 -25.95
222.3732 -25.95
222.404 -33.4
222.4374 -45.2
222.4706 -45.2
222.5039 -58.95
222.5345 -67.7
222.5642 -67.7
222.5975 -76.85
222.6296 -84.1
222.6607 -84.1
222.694 -91.95
222.7261 -101.35
222.7595 -108.1
222.7896 -108.1
222.8203 -115.75
222.8494 -115.75
222.8805 -122.95
222.9138 -129.3
222.9444 -129.3
222.9778 -133.65
223.0097 -137.6
223.043 -137.6
223.0763 -140.45
223.1067 -142.85
223.1358 -142.85
223.1673 -145.7
223.1992 -147.2
223.2326 -147.2
223.2659 -149.15
223.2992 -150.7
223.3287 -150.7
223.3606 -152.65
223.3939 -155.05
223.4272 -155.05
223.4572 -157.05
223.49 -159.9
223.5199 -159.9
223.5532 -163.35
223.5838 -166.45
223.6133 -166.45
223.6467 -170.6
223.68 -173.2
223.7133 -173.2
223.7443 -179.3
223.7753 -184.35
223.8065 -184.35
223.8398 -190.9
223.8732 -195.7
223.9024 -195.7
223.9324 -199
223.9633 -200.95
223.9939 -200.95
224.0272 -203.35
224.0606 -205.3
224.0914 -205.3
224.1211 -207.5
224.1544 -209.9
224.1877 -211.85
224.2193 -211.85
224.2514 -213.2
224.2841 -213.2
224.3174 -214.7
224.3507 -216.9
224.3811 -218.4
224.4123 -218.4
224.4456 -218.4
224.4756 -218.4
224.5089 -218.4
224.5422 -218.4
224.572 -218.4
224.6053 -218.4
224.6387 -218.4
224.672 -218.4
224.7024 -218.4
224.7357 -218.4
224.7691 -218.4
224.7994 -218.4
224.8328 -218.4
224.8661 -218.4
224.8994 -218.4
224.9324 -218.4
224.9655 -218.4
224.9988 -218.4
225.0321 -218.4
225.0616 -218.4
225.0926 -218.4
225.1232 -218.4
225.1565 -218.4
225.1898 -218.4
225.2229 -218.4
225.2563 -218.4
225.2896 -218.4
225.3229 -218.4
225.3517 -218.4
225.3834 -218.4
225.4167 -218.4
225.4457 -218.4
225.4791 -218.4
225.5124 -218.4
225.5421 -218.4
225.5726 -218.2
225.6058 -218.2
225.6391 -218.2
225.6704 -217.55
225.702 -217.55
225.7318 -215.6
225.7631 -215.6
225.7964 -213.4
225.8295 -210.35
225.8612 -204.2
225.8926 -204.2
225.9228 -199
225.9561 -194.85
225.9894 -194.85
226.0227 -189.8
226.0561 -186.1
226.0882 -186.1
226.1215 -181.5
226.1549 -179.55
226.1882 -179.55
226.218 -170.15
226.2495 -162.3
226.2829 -162.3
226.3115 -153.55
226.3417 -145.9
226.375 -145.9
226.4065 -138.05
226.4398 -126.65
226.4712 -126.65
226.5002 -118.6
226.5297 -118.6
226.5606 -109
226.5939 -100.9
226.6238 -91.05
226.6572 -91.05
226.6867 -80.35
226.7178 -70.95
226.7511 -70.95
226.7845 -59.85
226.8178 -50.65
226.8477 -42.35
226.8811 -42.35
226.9144 -39.3
226.9441 -35.35
226.9732 -35.35
227.0047 -30.55
227.0381 -30.55
227.0714 -22.5
227.1033 -15.05
227.135 -3.9
227.1682 -3.9
227.2015 5.85
227.2348 11.75
227.2682 11.75
227.3015 16.6
227.3348 21.6
227.3646 21.6
227.3979 25.75
227.4313 29.25
227.4646 33.6
227.4949 33.6
227.5283 37.35
227.5616 41.5
227.595 44.75
227.6243 44.75
227.6553 48.9
227.687 48.9
227.7203 52.85
227.7523 56.1
227.7836 60.05
227.8151 60.05
227.8484 64
227.8817 67.05
227.9116 67.05
227.9411 70.55
227.9729 75.35
228.0031 75.35
228.0364 80.35
228.0698 85.8
228.1031 85.8
228.1349 90
228.1683 95.2
228.2016 95.2
228.2349 100.45
228.2683 104.85
228.301 110.5
228.3343 110.5
228.3677 116.2
228.3978 120.55
228.4274 120.55
228.4574 125.8
228.4881 129.1
228.5215 129.1
228.5548 132.35
228.5851 134.3
228.6184 134.3
228.6488 135
228.6822 137.4
228.7143 137.4
228.7477 141.95
228.7796 147.45
228.8088 147.45
228.8421 151.8
228.8734 157.25
228.9039 157.25
228.9344 160.75
228.9648 160.75
228.9981 167.1
229.0314 171.25
229.0636 176.9
229.0956 176.9
229.129 181.7
229.1623 185.85
229.194 185.85
229.2255 189.35
229.2588 192.2
229.2921 192.2
229.3255 194.4
229.3588 197
229.3879 199.65
229.4212 199.65
229.4546 201.4
229.4879 202.9
229.521 202.9
229.5532 204
229.5837 204.2
229.6159 204.2
229.6492 204.2
229.6803 204.2
229.7137 204.2
229.747 204.2
229.7791 204.2
229.8125 204.2
229.8452 204.2
229.8756 204.2
229.9067 204
229.94 204
229.9733 203.55
230.0067 203.35
230.0392 203.35
230.0682 203.35
230.1015 203.35
230.1349 203.35
230.165 203.35
230.1983 203.35
230.2315 203.35
230.2648 203.35
