時間[s] タイヤの舵角[deg]
0 0
0.02 19.4
0.05333333 19.4
0.08666666 19.4
0.12 19.4
0.152883 19.4
0.1827368 19.4
0.2112451 19.4
0.2401325 19.4
0.2683961 19.4
0.2976241 19.4
0.3273839 19.4
0.3587704 19.4
0.3921037 19.4
0.4254371 19.4
0.4587704 19.4
0.489748 19.4
0.5220649 19.4
0.5503379 19.4
0.5778151 19.4
0.6067252 19.4
0.6344606 19.4
0.6677939 19.4
0.6964539 19.4
0.7270225 19.4
0.7603558 19.4
0.7936892 19.4
0.8216202 19.4
0.8549535 19.4
0.8882868 19.4
0.9176322 19.4
0.9488395 19.4
0.9783815 19.4
1.011715 19.4
1.045048 19.4
1.077597 19.4
1.11093 19.4
1.141259 19.4
1.170678 19.4
1.200401 19.4
1.231023 19.4
1.259307 19.4
1.29264 19.4
1.321635 19.4
1.354058 19.4
1.387391 19.4
1.41457 19.4
1.444486 19.4
1.47339 19.4
1.506723 19.4
1.538262 19.4
1.569533 19.4
1.600363 19.4
1.628947 19.4
1.661985 19.4
1.690514 19.4
1.718538 19.4
1.751872 19.4
1.783 19.4
1.810899 19.4
1.843623 19.4
1.87438 19.4
1.903945 19.4
1.937279 19.4
1.968351 19.4
1.995983 19.4
2.02477 19.4
2.054312 19.4
2.081868 19.4
2.115201 19.4
2.148396 19.4
2.177054 19.4
2.209596 19.4
2.239123 19.4
2.270058 19.4
2.299346 19.4
2.33 19.4
2.359512 19.4
2.392845 19.4
2.425169 19.4
2.453715 19.4
2.484215 19.4
2.515658 19.4
2.545259 19.4
2.576817 19.4
2.61015 19.4
2.641534 19.4
2.674867 19.4
2.7082 19.4
2.739801 19.4
2.768698 19.4
2.802031 19.4
2.832563 19.4
2.865897 19.4
2.897165 19.4
2.929369 19.4
2.962702 19.4
2.99187 19.4
3.019843 19.4
3.053177 19.4
3.082305 19.4
3.110574 19.4
3.141669 19.4
3.175002 19.4
3.208335 19.4
3.241669 19.4
3.275002 19.4
3.302882 19.4
3.33394 19.4
3.364596 19.4
3.394848 19.4
3.423995 19.4
3.45321 19.4
3.481069 19.4
3.510929 19.4
3.544263 19.4
3.57597 19.4
3.608351 19.4
3.637117 19.4
3.664375 19.4
3.692551 19.4
3.72578 19.4
3.753856 19.4
3.785589 19.4
3.814338 19.4
3.842026 19.4
3.869916 19.4
3.898419 19.4
3.92973 19.4
3.963063 19.4
3.993496 19.4
4.026639 19.4
4.056767 19.4
4.0901 19.4
4.119184 19.4
4.148464 19.4
4.181798 19.4
4.209583 19.4
4.239468 19.4
4.271194 19.4
4.304528 19.4
4.33416 19.4
4.364053 19.4
4.396646 19.4
4.426055 19.4
4.455654 19.4
4.486002 19.4
4.519336 19.4
4.551474 19.4
4.578685 19.4
4.607819 19.4
4.636729 19.4
4.664556 19.4
4.695496 19.4
4.722405 19.4
4.751259 19.4
4.784592 19.4
4.813444 19.4
4.840341 19.4
4.870568 19.4
4.900476 19.4
4.93381 19.4
4.967143 19.4
4.99924 19.4
5.029444 19.4
5.058302 19.4
5.088978 19.4
5.120222 19.4
5.152493 19.4
5.184905 19.4
5.21372 19.4
5.242256 19.4
5.270704 19.4
5.299153 19.4
5.32993 19.4
5.359046 19.4
5.389987 19.4
5.419006 19.4
5.448114 19.4
5.478321 19.4
5.511081 19.4
5.542942 19.4
5.576275 19.4
5.609609 19.4
5.638029 19.4
5.667385 19.4
5.695996 19.4
5.724458 19.4
5.753233 19.4
5.78363 19.4
5.813459 19.4
5.845404 19.4
5.874719 19.4
5.908052 19.4
5.937059 19.4
5.970393 19.4
6.001992 19.4
6.032475 19.4
6.065808 19.4
6.093708 19.4
6.122215 19.4
6.15509 19.4
6.188424 19.4
6.218065 19.4
6.250489 19.4
6.283823 19.4
6.31139 19.4
6.341932 19.4
6.373219 19.4
6.40246 19.4
6.432677 19.4
6.461442 19.4
6.489924 19.4
6.520183 19.4
6.553516 19.4
6.583291 19.4
6.615399 19.4
6.648733 19.4
6.67738 19.4
6.707085 19.4
6.736693 19.4
6.769141 19.4
6.797808 19.4
6.826995 19.4
6.860055 19.4
6.890114 19.4
6.921613 19.4
6.950303 19.4
6.979313 19.4
7.012647 19.4
7.039367 19.4
7.06781 19.4
7.097319 19.4
7.127154 19.4
7.157719 19.4
7.189386 19.4
7.222661 19.4
7.255995 19.4
7.286265 19.4
7.315467 19.4
7.345617 19.4
7.375625 19.4
7.408413 19.4
7.436223 19.4
7.4658 19.4
7.494673 19.4
7.526072 19.4
7.556299 19.4
7.586229 19.4
7.61671 19.4
7.649475 19.4
7.68051 19.4
7.710189 19.4
7.743523 19.4
7.771646 19.4
7.80498 19.4
7.833501 19.4
7.862921 19.4
7.896255 19.4
7.926879 19.4
7.955103 19.4
7.988437 19.4
8.021562 19.4
8.052484 19.4
8.081872 19.4
8.111322 19.4
8.141982 19.4
8.175315 19.4
8.208352 19.4
8.240098 19.4
8.269054 19.4
8.297215 19.4
8.32669 19.4
8.360023 19.4
8.388363 19.4
8.418284 19.4
8.447494 19.4
8.480826 19.4
8.51416 19.4
8.547493 19.4
8.577174 19.4
8.606877 19.4
8.64021 19.4
8.66779 19.4
8.697526 19.4
8.728314 19.4
8.761504 19.4
8.794716 19.4
8.823749 19.4
8.857081 19.4
8.885654 19.4
8.918987 19.4
8.950504 19.4
8.978832 19.4
9.01035 19.4
9.038459 19.4
9.067187 19.4
9.097955 19.4
9.127042 19.4
9.160375 19.4
9.190908 19.4
9.221886 19.4
9.253583 19.4
9.283102 19.4
9.313392 19.4
9.342078 19.4
9.371426 19.4
9.402129 19.4
9.429991 19.4
9.458302 19.4
9.489327 19.4
9.518172 19.4
9.546977 19.4
9.577423 19.4
9.610639 19.4
9.641791 19.4
9.671838 19.4
9.702171 19.4
9.731328 19.4
9.764661 19.4
9.797806 19.4
9.82693 19.4
9.85579 19.4
9.888262 19.4
9.916971 19.4
9.950304 19.4
9.979445 19.4
10.01278 19.4
10.04284 19.4
10.07193 19.4
10.10526 19.4
10.13855 19.4
10.16883 19.4
10.2012 19.4
10.23454 19.4
10.26251 19.4
10.294 19.4
10.32734 19.4
10.36067 19.4
10.39361 19.4
10.42365 19.4
10.45698 19.4
10.48971 19.4
10.52179 19.4
10.55106 19.4
10.5844 19.4
10.61321 19.4
10.64064 19.4
10.67354 19.4
10.7019 19.4
10.73004 19.4
10.76338 19.4
10.79207 19.4
10.82051 19.4
10.85224 19.4
10.88076 19.4
10.90931 19.4
10.94034 19.4
10.97223 19.4
11.00076 19.4
11.03045 19.4
11.05901 19.4
11.08894 19.4
11.11994 19.4
11.14861 19.4
11.17893 19.4
11.20783 19.4
11.23638 19.4
11.26972 19.4
11.30305 19.4
11.3324 19.4
11.3644 19.4
11.39773 19.4
11.42797 19.4
11.45727 19.4
11.48673 19.4
11.51575 19.4
11.54312 19.4
11.57311 19.4
11.60139 19.4
11.62805 19.4
11.65894 19.4
11.68984 19.4
11.71801 19.4
11.74757 19.4
11.77829 19.4
11.81163 19.4
11.84177 19.4
11.87078 19.4
11.90199 19.4
11.9298 19.4
11.96106 19.4
11.99123 19.4
12.0204 19.4
12.04965 19.4
12.07738 19.4
12.11072 19.4
12.14257 19.4
12.17283 19.4
12.2049 19.4
12.23437 19.4
12.26209 19.4
12.29431 19.4
12.32765 19.4
12.35635 19.4
12.38649 19.4
12.41538 19.4
12.44412 19.4
12.47408 19.4
12.50351 19.4
12.53104 19.4
12.56437 19.4
12.59342 19.4
12.62675 19.4
12.66008 19.4
12.68861 19.4
12.71775 19.4
12.75108 19.4
12.78131 19.4
12.81191 19.4
12.84043 19.4
12.86965 19.4
12.89966 19.4
12.92679 19.4
12.95465 19.4
12.9824 19.4
13.01246 19.4
13.04093 19.4
13.06856 19.4
13.10027 19.4
13.13092 19.4
13.15906 19.4
13.18778 19.4
13.21746 19.4
13.24938 19.4
13.27944 19.4
13.30842 19.4
13.33722 19.4
13.3689 19.4
13.40224 19.4
13.43557 19.4
13.46335 19.4
13.49401 19.4
13.52578 19.4
13.55741 19.4
13.58711 19.4
13.61927 19.4
13.64921 19.4
13.68254 19.4
13.71033 19.4
13.7396 19.4
13.77116 19.4
13.80059 19.4
13.83084 19.4
13.86262 19.4
13.89579 19.4
13.92351 19.4
13.95663 19.4
13.98629 19.4
14.01568 19.4
14.04665 19.4
14.07738 19.4
14.11071 19.4
14.13999 19.4
14.17038 19.4
14.20057 19.4
14.23219 19.4
14.26552 19.4
14.29342 19.4
14.32622 19.4
14.35436 19.4
14.38373 19.4
14.41619 19.4
14.44952 19.4
14.48271 19.4
14.51047 19.4
14.53951 19.4
14.56751 19.4
14.59781 19.4
14.62824 19.4
14.65717 19.4
14.69051 19.4
14.72005 19.4
14.74915 19.4
14.77974 19.4
14.8119 19.4
14.84 19.4
14.87334 19.4
14.90054 19.4
14.93387 19.4
14.96563 19.4
14.99846 19.4
15.02734 19.4
15.06067 19.4
15.08823 19.4
15.11677 19.4
15.15011 19.4
15.18201 19.4
15.21289 19.4
15.241 19.4
15.27433 19.4
15.30767 19.4
15.34001 19.4
15.36821 19.4
15.39917 19.4
15.42914 19.4
15.45746 19.4
15.49076 19.4
15.5216 19.4
15.55493 19.4
15.58583 19.4
15.61739 19.4
15.64682 19.4
15.67967 19.4
15.70959 19.4
15.73709 19.4
15.76524 19.4
15.79593 19.4
15.82926 19.4
15.85795 19.4
15.89129 19.4
15.92076 19.4
15.95054 19.4
15.98127 19.4
16.01403 19.4
16.04737 19.4
16.07835 19.4
16.10901 19.4
16.14116 19.4
16.17319 19.4
16.20109 19.4
16.22894 19.4
16.25846 19.4
16.29045 19.4
16.32378 19.4
16.35407 19.4
16.3874 19.4
16.42074 19.4
16.45204 19.4
16.48347 19.4
16.51681 19.4
16.54776 19.4
16.57984 19.4
16.61309 19.4
16.64234 19.4
16.67567 19.4
16.70444 19.4
16.73597 19.4
16.76635 19.4
16.7958 19.4
16.82738 19.4
16.8584 19.4
16.89174 19.4
16.92507 19.4
16.95796 19.4
16.99018 19.4
17.02351 19.4
17.05316 19.4
17.08474 19.4
17.11615 19.4
17.14672 19.4
17.18005 19.4
17.21339 19.4
17.24109 19.4
17.26966 19.4
17.29716 19.4
17.32536 19.4
17.35869 19.4
17.38737 19.4
17.41642 19.4
17.44633 19.4
17.47879 19.4
17.50646 19.4
17.53692 19.4
17.56669 19.4
17.59696 19.4
17.63029 19.4
17.65898 19.4
17.69161 19.4
17.71985 19.4
17.74924 19.4
17.77879 19.4
17.80768 19.4
17.83725 19.4
17.86625 19.4
17.89529 19.4
17.92863 19.4
17.95549 19.4
17.98618 19.4
18.01951 19.4
18.05284 19.4
18.08575 19.4
18.11909 19.4
18.14669 19.4
18.18002 19.4
18.21004 19.4
18.23857 19.4
18.26756 19.4
18.29783 19.4
18.32942 19.4
18.35874 19.4
18.38768 19.4
18.41864 19.4
18.44845 19.4
18.47992 19.4
18.50855 19.4
18.54171 19.4
18.5749 19.4
18.60382 19.4
18.63715 19.4
18.67048 19.4
18.69945 19.4
18.72945 19.4
18.7625 19.4
18.79444 19.4
18.82341 19.4
18.85349 19.4
18.87989 19.4
18.9123 19.4
18.94082 19.4
18.97052 19.4
19.00359 19.4
19.03359 19.4
19.06656 19.4
19.09548 19.4
19.12616 19.4
19.15337 19.4
19.18551 19.4
19.21688 19.4
19.24619 19.4
19.27952 19.4
19.31285 19.4
19.34136 19.4
19.37444 19.4
19.40778 19.4
19.43708 19.4
19.46654 19.4
19.49566 19.4
19.52492 19.4
19.55825 19.4
19.59158 19.4
19.62107 19.4
19.65132 19.4
19.67889 19.4
19.70879 19.4
19.74212 19.4
19.7724 19.4
19.8016 19.4
19.83046 19.4
19.85932 19.4
19.88726 19.4
19.9206 19.4
19.95034 19.4
19.98135 19.4
20.01404 19.4
20.04737 19.4
20.07822 19.4
20.1114 19.4
20.14151 19.4
20.17484 19.4
20.20648 19.4
20.23533 19.4
20.26428 19.4
20.29699 19.4
20.32762 19.4
20.35542 19.4
20.38683 19.4
20.41772 19.4
20.45106 19.4
20.47931 19.4
20.51057 19.4
20.54391 19.4
20.57246 19.4
20.602 19.4
20.63403 19.4
20.66285 19.4
20.69618 19.4
20.72877 19.4
20.76078 19.4
20.79411 19.4
20.82382 19.4
20.85305 19.4
20.88638 19.4
20.91972 19.4
20.95155 19.4
20.98054 19.4
21.00915 19.4
21.04199 19.4
21.07271 19.4
21.10465 19.4
21.133 19.4
21.16634 19.4
21.19396 19.4
21.22327 19.4
21.25202 19.4
21.28043 19.4
21.30911 19.4
21.34079 19.4
21.37044 19.4
21.40378 19.4
21.43647 19.4
21.46543 19.4
21.49773 19.4
21.52728 19.4
21.5576 19.4
21.58643 19.4
21.61531 19.4
21.64371 19.4
21.67704 19.4
21.71038 19.4
21.74371 19.4
21.77217 19.4
21.8055 19.4
21.83883 19.4
21.87216 19.4
21.9055 19.4
21.93409 19.4
21.96348 19.4
21.99271 19.4
22.02209 19.4
22.05173 19.4
22.08048 19.4
22.10958 19.4
22.13898 19.4
22.17232 19.4
22.20356 19.4
22.23171 19.4
22.26122 19.4
22.29132 19.4
22.31985 19.4
22.35103 19.4
22.38128 19.4
22.41461 19.4
22.44417 19.4
22.47624 19.4
22.50957 19.4
22.54085 19.4
22.57001 19.4
22.60064 19.4
22.63397 19.4
22.66375 19.4
22.69575 19.4
22.72459 19.4
22.75738 19.4
22.79071 19.4
22.82195 19.4
22.85129 19.4
22.881 19.4
22.91312 19.4
22.94417 19.4
22.97657 19.4
23.00561 19.4
23.03646 19.4
23.06631 19.4
23.09908 19.4
23.12905 19.4
23.16238 19.4
23.1922 19.4
23.22067 19.4
23.254 19.4
23.2822 19.4
23.30946 19.4
23.33899 19.4
23.36732 19.4
23.39545 19.4
23.42614 19.4
23.45791 19.4
23.48895 19.4
23.5195 19.4
23.54742 19.4
23.58076 19.4
23.60996 19.4
23.63927 19.4
23.66899 19.4
23.69916 19.4
23.72714 19.4
23.75781 19.4
23.78972 19.4
23.82109 19.4
23.85217 19.4
23.88551 19.4
23.91439 19.4
23.94773 19.4
23.97672 19.4
24.00854 19.4
24.03846 19.4
24.06956 19.4
24.09827 19.4
24.12729 19.4
24.15847 19.4
24.18776 19.4
24.21578 19.4
24.24603 19.4
24.27806 19.4
24.3068 19.4
24.34014 19.4
24.36818 19.4
24.40151 19.4
24.43147 19.4
24.45992 19.4
24.48999 19.4
24.51991 19.4
24.54944 19.4
24.57766 19.4
24.60919 19.4
24.64252 19.4
24.67362 19.4
24.70268 19.4
24.73134 19.4
24.7629 19.4
24.79147 19.4
24.82094 19.4
24.85427 19.4
24.88352 19.4
24.91466 19.4
24.94443 19.4
24.97334 19.4
25.00384 19.4
25.03718 19.4
25.06661 19.4
25.09994 19.4
25.12976 19.4
25.16131 19.4
25.18983 19.2
25.21834 19.2
25.25167 18.3
25.28001 18.3
25.30869 17.65
25.33745 17.65
25.36885 17
25.40031 16.6
25.43207 16.6
25.46216 16.15
25.49366 15.9
25.52699 15.9
25.55849 15.7
25.58979 15.7
25.61939 15.7
25.64771 15.7
25.67604 15.7
25.70545 15.5
25.73364 15.5
25.76283 13.5
25.79263 11.1
25.82169 11.1
25.85312 9.15
25.88646 9.15
25.91979 5.45
25.94818 3.05
25.98074 3.05
26.01158 0.65
26.04143 -1.5
26.07476 -1.5
26.10521 -2.6
26.13688 -3.9
26.1657 -3.9
26.19904 -4.15
26.22863 -4.15
26.25962 -4.15
26.28817 -4.15
26.31849 -4.15
26.35183 -4.15
26.38026 -4.15
26.41159 -4.15
26.44492 -4.15
26.47803 -4.15
26.50685 -4.35
26.54019 -4.55
26.57352 -4.55
26.60262 -5
26.63322 -5.2
26.66341 -5.2
26.69242 -5.65
26.72137 -5.65
26.75021 -5.85
26.77934 -5.85
26.81126 -5.85
26.84393 -5.85
26.87147 -5.85
26.90426 -5.85
26.93473 -5.85
26.96595 -5.85
26.99538 -5.85
27.02872 -5.85
27.05938 -5.85
27.09272 -5.85
27.12426 -5.85
27.15418 -5.85
27.18288 -5.85
27.2123 -5.85
27.24563 -5.85
27.27897 -5.85
27.309 -5.85
27.3407 -5.85
27.37284 -5.85
27.40302 -5.85
27.43206 -5.85
27.46457 -5.85
27.4928 -5.85
27.52205 -5.85
27.55272 -5.85
27.58214 -5.85
27.61547 -5.85
27.64633 -5.85
27.67817 -5.85
27.7084 -5.85
27.73813 -5.85
27.76868 -5.85
27.79802 -5.85
27.82807 -5.85
27.86141 -5.85
27.89104 -5.85
27.92438 -5.85
27.95306 -5.85
27.98139 -5.65
28.01472 -5.65
28.04805 -5.65
28.08139 -5.65
28.11472 -5.65
28.14805 -5.65
28.17979 -5.65
28.20983 -5.65
28.24316 -5.65
28.2729 -5.65
28.30259 -5.65
28.33465 -5.65
28.36742 -5.45
28.39637 -5.45
28.42971 -5.45
28.4578 -5.45
28.48774 -5.45
28.51939 -5.45
28.5506 -5.45
28.58393 -5.2
28.61404 -5.2
28.64491 -5
28.6763 -4.55
28.70805 -4.55
28.73709 -4.15
28.7689 -3.7
28.80224 -3.7
28.83557 -3.45
28.86539 -3.25
28.8974 -3.25
28.9285 -3.25
28.95825 -3.25
28.9883 -3.25
29.02163 -3.25
29.05056 -3.25
29.08389 -3.25
29.1129 -3.25
29.14262 -3.25
29.17089 -3.25
29.2028 -3.25
29.23613 -3.25
29.26482 -3.25
29.29568 -3.25
29.32715 -3.25
29.35987 -3.25
29.39021 -3.25
29.42092 -3.25
29.45218 -3.25
29.48489 -3.45
29.51682 -3.45
29.54664 -3.45
29.57997 -3.45
29.60938 -3.45
29.64057 -3.45
29.673 -3.45
29.70212 -3.45
29.73115 -3.45
29.7589 -3.45
29.7873 -3.45
29.82051 -3.45
29.84912 -3.45
29.88245 -3.45
29.91578 -3.45
29.94739 -3.45
29.98072 -3.45
30.01021 -3.45
30.03836 -3.45
30.0717 -3.45
30.10197 -3.45
30.1324 -3.45
30.16039 -3.45
30.19221 -3.45
30.22181 -3.45
30.25064 -3.45
30.28057 -3.45
30.31391 -3.45
30.34724 -3.45
30.38057 -3.45
30.40984 -3.45
30.43787 -3.45
30.46764 -3.45
30.49763 -3.45
30.52636 -3.45
30.55692 -3.45
30.58609 -3.45
30.61942 -3.45
30.65164 -3.45
30.68127 -3.45
30.71054 -3.45
30.73954 -3.45
30.76864 -3.45
30.79751 -3.45
30.83084 -3.45
30.86418 -4.15
30.89338 -5
30.92622 -5
30.95955 -5.85
30.98816 -7.85
31.01689 -7.85
31.05023 -8.95
31.07965 -9.8
31.11221 -9.8
31.14024 -10.7
31.17354 -11.1
31.20158 -11.1
31.23125 -11.75
31.26283 -11.75
31.29616 -12.65
31.32619 -12.65
31.35861 -12.65
31.38821 -12.65
31.41689 -12.85
31.44641 -12.85
31.47563 -13.5
31.5073 -13.5
31.54063 -14.4
31.5692 -15.25
31.59696 -15.25
31.62706 -15.25
31.66039 -14.6
31.69354 -14.6
31.72262 -13.75
31.75404 -13.75
31.78149 -13.5
31.81483 -13.5
31.84736 -13.5
31.88009 -13.75
31.911 -14.15
31.94068 -14.15
31.96915 -14.6
31.99878 -14.6
32.03006 -15.7
32.06176 -17.25
32.09443 -17.25
32.12291 -18.3
32.15374 -18.3
32.18522 -19
32.2174 -19.4
32.24848 -19.4
32.27763 -19.85
32.30912 -19.85
32.33987 -20.05
32.3732 -20.05
32.40224 -20.05
32.43003 -20.05
32.46133 -20.05
32.48982 -20.05
32.52199 -20.05
32.55251 -20.05
32.58545 -20.05
32.61707 -20.05
32.6477 -20.05
32.67556 -20.05
32.70578 -20.05
32.73682 -20.05
32.76574 -20.05
32.79345 -20.05
32.82679 -20.05
32.86008 -20.05
32.88947 -20.05
32.9187 -20.05
32.9471 -20.05
32.97758 -20.05
33.01042 -20.05
33.03942 -20.05
33.06788 -20.05
33.10121 -20.05
33.13001 -20.05
33.15905 -20.05
33.18988 -20.05
33.2204 -20.05
33.24946 -20.05
33.28016 -20.05
33.30904 -20.05
33.33835 -20.05
33.37157 -20.05
33.39986 -20.05
33.43181 -20.05
33.46164 -20.05
33.49498 -20.05
33.52831 -20.05
33.55917 -20.05
33.5925 -20.05
33.62029 -20.05
33.65362 -20.05
33.68695 -20.05
33.71503 -20.05
33.74705 -20.05
33.77658 -20.05
33.80878 -20.05
33.84211 -20.05
33.87545 -20.05
33.90631 -20.05
33.93653 -20.05
33.9655 -20.05
33.99352 -20.05
34.02354 -20.05
34.05687 -20.05
34.08504 -20.05
34.11837 -20.05
34.15171 -20.05
34.18025 -20.05
34.21066 -20.05
34.23864 -20.05
34.26664 -20.05
34.29997 -20.05
34.32845 -20.05
34.359 -20.05
34.38713 -20.05
34.42047 -20.05
34.45337 -20.05
34.4867 -20.05
34.51602 -20.05
34.54677 -20.05
34.5801 -20.05
34.60923 -20.05
34.63736 -20.05
34.66976 -20.05
34.70309 -20.05
34.73033 -20.05
34.75979 -20.05
34.79118 -20.05
34.82337 -20.05
34.8567 -20.05
34.887 -20.05
34.91548 -20.05
34.94881 -20.05
34.98201 -20.05
35.01167 -20.05
35.04101 -20.05
35.07434 -20.05
35.10301 -20.05
35.13144 -20.05
35.1617 -20.05
35.18898 -20.05
35.22232 -20.05
35.25169 -20.05
35.27973 -20.05
35.30921 -20.05
35.34168 -20.05
35.37187 -20.05
35.40242 -20.05
35.43576 -20.05
35.46541 -20.05
35.49821 -20.05
35.53154 -20.05
35.55999 -20.05
35.59109 -20.05
35.61996 -20.05
35.64812 -20.05
35.67963 -20.05
35.71065 -20.05
35.74263 -20.05
35.7752 -20.05
35.80814 -20.05
35.84147 -20.05
35.87012 -20.05
35.90177 -20.05
35.9351 -20.05
35.96691 -20.05
35.99598 -20.05
36.02932 -20.05
36.06265 -20.05
36.09176 -20.05
36.12509 -20.05
36.15842 -20.05
36.1905 -20.05
36.2229 -20.05
36.25572 -20.05
36.28905 -20.05
36.3185 -20.05
36.34813 -20.05
36.37817 -20.05
36.40759 -20.05
36.44092 -20.05
36.47425 -20.05
36.50462 -20.05
36.53795 -19.85
36.56778 -19.85
36.59657 -19.65
36.6268 -19.65
36.65495 -19.65
36.68271 -19.65
36.71323 -19.65
36.74356 -19.65
36.77339 -19.65
36.80672 -19.65
36.84005 -19.65
36.8728 -19.65
36.90613 -19.65
36.93452 -19.65
36.96297 -19.65
36.99305 -19.65
37.02344 -19.65
37.05463 -19.65
37.08796 -19.65
37.1213 -19.65
37.15033 -19.65
37.18149 -19.65
37.21161 -19.65
37.24494 -19.65
37.27379 -19.65
37.30557 -19.65
37.3343 -19.65
37.36354 -19.65
37.39202 -19.65
37.42097 -19.65
37.45426 -19.65
37.48632 -19.65
37.51965 -19.65
37.5499 -19.65
37.5806 -19.65
37.61323 -19.65
37.64301 -19.65
37.67491 -19.65
37.70374 -19.65
37.73679 -19.65
37.77012 -19.65
37.80183 -19.65
37.83182 -19.65
37.86108 -19.65
37.89001 -19.65
37.92265 -19.65
37.95325 -19.65
37.98291 -19.65
38.01267 -19.65
38.04162 -19.65
38.07495 -19.65
38.10829 -19.65
38.13758 -19.65
38.17091 -19.65
38.19941 -19.65
38.23197 -19.65
38.26183 -19.65
38.29157 -19.65
38.32092 -19.65
38.35232 -19.65
38.38491 -19.65
38.41552 -19.65
38.44497 -19.65
38.47347 -19.65
38.50246 -19.65
38.53189 -19.65
38.56115 -19.65
38.59052 -19.65
38.61969 -19.65
38.6512 -19.65
38.68103 -19.65
38.71437 -19.65
38.74653 -19.65
38.77465 -19.65
38.80423 -19.65
38.83343 -19.65
38.86225 -19.65
38.88987 -19.65
38.91975 -19.65
38.95016 -19.65
38.97972 -19.65
39.01219 -19.65
39.04105 -19.65
39.07202 -19.65
39.10535 -19.65
39.13589 -19.65
39.16499 -19.65
39.19433 -19.65
39.22299 -19.65
39.25534 -19.65
39.28867 -19.65
39.31723 -19.65
39.35055 -19.65
39.38036 -19.65
39.40874 -19.65
39.43697 -19.65
39.46857 -19.65
39.50147 -19.65
39.52946 -19.65
39.5582 -19.65
39.58769 -19.65
39.62007 -19.65
39.65183 -19.65
39.68307 -19.65
39.71487 -19.65
39.74557 -19.65
39.77628 -19.65
39.80428 -19.65
39.83349 -19.65
39.86683 -19.65
39.8984 -19.65
39.93174 -19.65
39.96009 -19.65
39.98972 -19.65
40.02305 -19.65
40.05179 -19.65
40.07991 -19.65
40.11124 -19.65
40.14372 -19.65
40.17149 -19.65
40.20197 -19.65
40.23207 -19.65
40.26443 -19.65
40.29406 -19.65
40.3274 -19.65
40.3563 -19.65
40.38715 -19.65
40.42048 -19.65
40.45247 -19.65
40.48212 -19.65
40.51331 -19.65
40.54235 -19.65
40.57569 -19.65
40.60525 -19.65
40.63858 -19.65
40.66803 -19.65
40.70136 -19.65
40.73186 -19.65
40.7637 -19.65
40.79703 -19.65
40.82941 -19.65
40.85889 -19.85
40.88818 -19.85
40.91653 -19.85
40.94549 -19.85
40.975 -20.05
41.00312 -20.05
41.0322 -20.05
41.06553 -20.05
41.09811 -20.05
41.12616 -20.05
41.15488 -20.05
41.18747 -20.05
41.21631 -20.05
41.24624 -20.05
41.27958 -20.05
41.30832 -20.05
41.33844 -20.3
41.36923 -20.3
41.40257 -20.5
41.4359 -21.15
41.46589 -21.15
41.49546 -21.6
41.52879 -22.05
41.55738 -22.05
41.58617 -22.25
41.61951 -22.25
41.64813 -22.5
41.67944 -22.7
41.70772 -22.7
41.73601 -22.9
41.76934 -22.9
41.79944 -22.9
41.82961 -22.9
41.86294 -22.9
41.89595 -22.9
41.92733 -22.9
41.95839 -22.9
41.98714 -22.9
42.02048 -22.9
42.0494 -22.9
42.07861 -22.9
42.11194 -22.9
42.14528 -22.9
42.17353 -22.9
42.20686 -22.9
42.23649 -22.9
42.26657 -23.15
42.29987 -23.15
42.3332 -23.8
42.36653 -24.2
42.39987 -24.2
42.42892 -24.9
42.46124 -25.3
42.49203 -25.3
42.52219 -25.75
42.5534 -25.75
42.58509 -26.2
42.61712 -26.4
42.64947 -26.4
42.67831 -26.65
42.70744 -26.65
42.73604 -26.85
42.76909 -27.05
42.80054 -27.05
42.82932 -27.05
42.86113 -27.05
42.89447 -27.05
42.9278 -27.05
42.95588 -27.05
42.98492 -27.05
43.01366 -27.05
43.04148 -27.05
43.07272 -27.05
43.10545 -27.05
43.13487 -27.05
43.16569 -27.05
43.19627 -27.05
43.22802 -27.05
43.26125 -27.05
43.29459 -27.05
43.32314 -27.5
43.35435 -28.15
43.38616 -28.15
43.4195 -29.05
43.44885 -29.05
43.48062 -29.9
43.5134 -30.8
43.54674 -30.8
43.57609 -31.2
43.6069 -31.65
43.63607 -31.65
43.66682 -32.1
43.69713 -32.1
43.73046 -32.3
43.75971 -32.5
43.79172 -32.5
43.82146 -32.75
43.85369 -32.95
43.88702 -32.95
43.91911 -33.4
43.94786 -33.85
43.9803 -33.85
44.01022 -34.5
44.04355 -34.5
44.07232 -35.15
44.10146 -36
44.12972 -36
44.16306 -36.9
44.19291 -36.9
44.22099 -37.35
44.25394 -38
44.28306 -38
44.31381 -38.4
44.34139 -38.4
44.36995 -38.65
44.40287 -38.85
44.43392 -38.85
44.46603 -39.1
44.49936 -39.1
44.53269 -39.1
44.56104 -39.1
44.59437 -39.1
44.62209 -39.1
44.65481 -39.1
44.68814 -39.1
44.71698 -39.1
44.7479 -39.1
44.77689 -39.1
44.81022 -39.1
44.84355 -39.5
44.87489 -39.5
44.90481 -39.95
44.93415 -39.95
44.96346 -40.15
44.99266 -40.6
45.026 -40.6
45.05639 -41.05
45.08594 -41.05
45.11491 -41.25
45.14417 -41.5
45.17302 -41.5
45.20211 -41.9
45.23197 -41.9
45.26352 -42.15
45.29242 -42.55
45.32402 -42.55
45.35397 -43
45.38492 -43
45.41441 -43.25
45.44246 -43.45
45.47127 -43.45
45.50322 -43.45
45.5313 -43.45
45.56076 -43.45
45.58967 -43.45
45.62006 -43.45
45.6534 -43.45
45.68379 -43.45
45.71712 -43.45
45.75045 -43.45
45.77954 -43.45
45.81208 -43.45
45.84441 -43.45
45.87531 -43.45
45.9032 -43.45
45.93235 -43.45
45.96568 -43.45
45.99356 -43.45
46.0229 -43.45
46.05617 -43.45
46.08888 -43.45
46.11904 -43.45
46.15097 -43.45
46.18169 -43.45
46.20996 -43.45
46.2418 -43.45
46.27514 -43.45
46.30511 -43.25
46.33377 -43
46.3671 -43
46.40044 -43
46.42982 -43
46.45739 -43
46.48655 -43
46.51474 -43
46.54807 -43
46.57733 -42.8
46.60625 -42.8
46.63958 -42.35
46.67036 -42.35
46.70369 -41.9
46.73285 -41.25
46.7617 -41.25
46.79198 -40.8
46.82297 -40.4
46.8563 -40.4
46.88635 -39.75
46.91594 -39.75
46.94721 -39.5
46.97898 -39.1
47.00722 -39.1
47.03563 -38.85
47.06896 -38.85
47.10229 -38.85
47.13312 -38.65
47.16572 -38.65
47.19459 -38.65
47.22405 -38.65
47.25306 -38.65
47.28598 -38.65
47.31539 -38.65
47.34872 -38.65
47.37633 -38.65
47.40563 -38.65
47.43592 -38.65
47.46925 -38.65
47.50183 -38.65
47.53516 -38.65
47.56424 -38.65
47.59654 -38.65
47.62621 -38.65
47.65714 -38.65
47.69047 -38.65
47.72195 -38.65
47.75529 -38.65
47.7854 -38.65
47.81873 -38.65
47.85207 -38.65
47.88448 -38.65
47.91782 -38.65
47.95059 -38.65
47.98392 -38.65
48.01726 -38.65
48.05053 -38.65
48.07888 -38.65
48.10794 -38.65
48.14029 -38.65
48.1716 -38.85
48.20095 -38.85
48.22964 -38.85
48.25821 -38.85
48.28931 -38.85
48.32265 -38.85
48.35598 -38.85
48.38644 -38.85
48.41687 -39.1
48.44875 -39.3
48.47809 -39.3
48.50685 -39.75
48.53686 -39.75
48.56839 -40.15
48.60173 -40.4
48.63388 -40.4
48.66722 -40.8
48.69632 -41.05
48.72597 -41.05
48.75555 -41.25
48.78325 -41.25
48.81659 -41.25
48.84502 -41.25
48.87835 -41.25
48.90907 -41.25
48.93729 -41.25
48.96639 -41.25
48.99594 -41.25
49.02571 -41.25
49.0578 -41.25
49.08724 -41.05
49.11549 -41.05
49.14882 -40.8
49.17772 -40.8
49.20676 -40.4
49.23653 -40.15
49.26986 -40.15
49.30083 -39.95
49.33195 -39.75
49.36528 -39.75
49.39545 -39.75
49.42601 -39.75
49.45934 -39.75
49.48785 -39.75
49.51784 -39.75
49.54847 -39.75
49.57911 -39.75
49.61031 -39.75
49.6426 -39.75
49.67594 -39.75
49.7075 -39.75
49.73812 -39.75
49.76998 -39.75
49.80165 -39.75
49.83072 -39.75
49.86044 -39.75
49.88931 -39.75
49.91879 -39.75
49.95186 -39.75
49.981 -39.75
50.01413 -39.75
50.04746 -39.75
50.07542 -39.75
50.10536 -39.75
50.13621 -39.75
50.16441 -39.75
50.19464 -39.75
50.22457 -39.75
50.2579 -39.75
50.29124 -39.75
50.32457 -39.5
50.3564 -39.5
50.38625 -39.1
50.41647 -39.1
50.4498 -38.4
50.47865 -37.75
50.51162 -37.75
50.54261 -37.1
50.57594 -36.65
50.6049 -36.65
50.63365 -35.8
50.66698 -35.8
50.69969 -35.15
50.73302 -33.85
50.76047 -33.85
50.79263 -32.3
50.82596 -30.55
50.85525 -30.55
50.88509 -27.95
50.91491 -25.1
50.94706 -25.1
50.97665 -23.15
51.00724 -23.15
51.03828 -20.3
51.07161 -18.3
51.09989 -18.3
51.13036 -15.7
51.16166 -13.95
51.18982 -13.95
51.2191 -12.45
51.25101 -12.45
51.28435 -11.1
51.31768 -10
51.34914 -10
51.38248 -9.6
51.41451 -9.35
51.44455 -9.35
51.47388 -9.35
51.50328 -9.35
51.53286 -9.35
51.56339 -9.35
51.59672 -9.35
51.62653 -9.35
51.65663 -9.35
51.68588 -9.35
51.71921 -9.35
51.74754 -9.35
51.77633 -9.35
51.80438 -9.35
51.83772 -9.35
51.86714 -9.35
51.90047 -9.35
51.92983 -9.35
51.95908 -9.15
51.99163 -9.15
52.02497 -8.5
52.0583 -7.6
52.08695 -7.6
52.1151 -6.75
52.14531 -6.75
52.17487 -5.85
52.20552 -4.35
52.23479 -4.35
52.26812 -2.6
52.29787 0.65
52.32951 0.65
52.36285 2.4
52.39392 6.75
52.42346 6.75
52.45306 9.35
52.48639 9.35
52.51972 11.75
52.5512 12.85
52.58036 12.85
52.60999 14.6
52.64332 15.7
52.67471 15.7
52.70492 16.15
52.73359 16.15
52.76196 16.8
52.79443 17.25
52.82258 17.25
52.85367 18.1
52.887 19.4
52.91695 19.4
52.94728 20.95
52.97881 20.95
53.0077 22.7
53.0358 24.9
53.06913 24.9
53.10033 27.05
53.13214 27.05
53.16279 29.25
53.19381 30.8
53.22555 30.8
53.25363 32.1
53.28683 33.85
53.31598 33.85
53.34852 35.8
53.38102 35.8
53.4087 38
53.44128 39.95
53.47461 39.95
53.50795 42.55
53.54128 44.75
53.57026 44.75
53.6011 47.15
53.63444 50.65
53.66777 50.65
53.6981 53.5
53.73002 55.45
53.76223 55.45
53.79108 57.85
53.82442 59.15
53.85579 59.15
53.88793 60.05
53.92127 60.05
53.9546 60.7
53.98621 61.15
54.01571 61.15
54.04904 61.6
54.07735 62.25
54.10717 62.25
54.13887 63.3
54.1673 63.3
54.19547 64.65
54.22881 65.5
54.25838 65.5
54.28723 67.25
54.32056 69.2
54.35063 69.2
54.38125 70.95
54.41298 70.95
54.44236 72.7
54.47377 74.05
54.50711 74.05
54.54044 75.8
54.5707 77.5
54.60341 77.5
54.63204 78.85
54.66177 80.15
54.69031 80.15
54.72364 81.65
54.75394 81.65
54.78309 83.65
54.81208 84.95
54.84132 84.95
54.87362 85.8
54.90695 85.8
54.93657 87.15
54.96841 88.25
54.99829 88.25
55.02713 89.1
55.05663 89.1
55.08615 90.65
55.11937 92.6
55.14883 92.6
55.18198 93.9
55.21518 96.55
55.24501 96.55
55.27557 98.5
55.30469 98.5
55.33537 99.8
55.36855 100.25
55.40144 100.25
55.43269 100.9
55.46426 101.1
55.49759 101.1
55.52678 101.1
55.56012 101.1
55.59212 101.1
55.62226 101.1
55.65059 101.35
55.67953 101.35
55.70812 102
55.74078 102
55.76955 103.1
55.79816 103.1
55.8261 104.6
55.85943 105.9
55.89257 105.9
55.92257 107.25
55.95557 108.3
55.98515 108.3
56.0139 109
56.04241 109
56.07375 109.85
56.10299 110.3
56.13372 110.3
56.16344 111.4
56.19572 111.4
56.22757 112.5
56.2609 114.65
56.28977 114.65
56.32132 115.95
56.35208 117.5
56.38126 117.5
56.41386 119.05
56.44212 119.05
56.47176 120.35
56.50341 121.85
56.53421 121.85
56.56247 123.2
56.59283 123.2
56.62219 124.7
56.65192 126.45
56.68457 126.45
56.71585 128.65
56.7459 128.65
56.77827 130.15
56.80692 132.55
56.83778 132.55
56.86758 134.55
56.89575 134.55
56.92515 136.7
56.95562 139.15
56.98895 139.15
57.02224 141.3
57.05558 143.3
57.0851 143.3
57.11319 145.45
57.14439 147.85
57.17773 147.85
57.2074 150.05
57.2365 150.05
57.26733 151.8
57.29834 154
57.33087 154
57.3642 156.6
57.3946 158.8
57.42459 158.8
57.45792 161.65
57.48802 163.8
57.51701 163.8
57.5469 166.45
57.5786 166.45
57.60678 168.2
57.63737 171
57.66625 171
57.69674 172.75
57.72835 172.75
57.75897 174.75
57.7923 176.25
57.82315 176.25
57.85207 177.55
57.88242 177.55
57.9123 177.8
57.94101 177.8
57.96995 177.8
58.00018 177.8
58.02806 177.8
58.05687 177.8
58.08559 177.8
58.1146 177.8
58.14447 177.8
58.17427 177.8
58.2021 177.8
58.23543 177.8
58.26644 177.8
58.2957 177.8
58.32596 177.8
58.35929 177.8
58.39262 177.8
58.42596 177.8
58.45929 177.8
58.48716 177.8
58.51595 177.8
58.54748 177.8
58.57868 177.8
58.61201 177.8
58.64437 177.8
58.6777 177.8
58.70833 177.8
58.74159 177.8
58.77075 177.8
58.80275 177.8
58.83499 177.35
58.86672 176.9
58.90005 176.9
58.92908 176.05
58.96049 176.05
58.9902 174.5
59.01868 173
59.05081 173
59.08414 171.9
59.11231 171.9
59.14008 171
59.17342 169.95
59.20263 169.95
59.23072 169.05
59.26044 169.05
59.29031 168.2
59.32167 167.75
59.355 167.75
59.38834 167.5
59.41695 167.5
59.44879 167.5
59.47976 167.3
59.51176 166.65
59.54193 166.65
59.57255 166
59.60043 166
59.62947 165.35
59.66281 164.7
59.69048 164.7
59.72308 164.05
59.75642 164.05
59.78373 163.35
59.81236 162.95
59.84353 162.95
59.87486 162.5
59.90445 162.5
59.93422 162.3
59.96603 162.3
59.99566 162.3
60.02899 162.3
60.05862 162.3
60.08904 162.3
60.12013 162.3
60.14874 162.3
60.1804 162.3
60.21273 162.3
60.24606 162.3
60.27523 162.3
60.30747 162.3
60.3408 162.3
60.36934 162.3
60.39994 162.3
60.43327 162.3
60.46168 162.5
60.49501 162.95
60.52384 162.95
60.55356 163.6
60.58283 163.6
60.61472 164.7
60.64427 166.2
60.67522 166.2
60.70633 167.75
60.73656 167.75
60.7699 169.05
60.79803 170.6
60.82669 170.6
60.85897 172.1
60.88897 173.65
60.91883 173.65
60.95217 175.8
60.98382 178.25
61.01668 178.25
61.0484 180.85
61.08012 183.45
61.10989 183.45
61.14012 185.45
61.16857 185.45
61.19826 186.95
61.23159 188.5
61.26493 188.5
61.29647 189.8
61.3298 191.75
61.35863 191.75
61.38957 193.5
61.41934 193.5
61.4494 195.9
61.48273 198.3
61.51325 198.3
61.54393 200.95
61.57446 203.15
61.60405 203.15
61.63326 205.75
61.66158 205.75
61.69205 207.7
61.72538 210.1
61.75549 210.1
61.78851 212.5
61.81606 212.5
61.84526 214.25
61.87543 216.45
61.90741 216.45
61.94044 218.2
61.97378 218.2
62.00328 218.2
62.03617 218.4
62.06836 218.4
62.09656 218.4
62.12486 218.4
62.15516 218.4
62.18537 218.4
62.2187 218.4
62.24862 218.4
62.27869 218.4
62.31068 218.4
62.33924 218.4
62.37258 218.4
62.40386 218.4
62.43196 218.4
62.46095 218.4
62.49242 218.4
62.52576 218.4
62.55605 218.4
62.5884 218.4
62.61716 218.4
62.64879 218.4
62.67924 218.4
62.70995 218.4
62.73961 218.4
62.76809 218.4
62.79848 218.4
62.82791 218.4
62.85632 218.4
62.88701 218.4
62.9199 218.4
62.94936 218.4
62.98241 218.4
63.01574 218.4
63.04908 218.4
63.08219 218.4
63.11164 218.4
63.13956 218.4
63.17289 218.4
63.20061 218.4
63.22968 218.4
63.25939 218.4
63.29166 218.4
63.32102 218.4
63.351 218.4
63.37961 218.4
63.41294 218.4
63.44216 218.4
63.4708 218.4
63.50171 218.4
63.53204 218.4
63.56245 218.4
63.59114 218.4
63.62429 218.4
63.65369 218.4
63.68383 218.4
63.7165 218.4
63.7466 218.4
63.77814 218.4
63.80755 218.4
63.83769 218.4
63.86627 218.4
63.89566 218.4
63.92899 218.4
63.96007 218.4
63.9898 218.4
64.01803 218.4
64.0492 218.4
64.08012 218.4
64.11016 218.4
64.13989 218.4
64.17121 218.4
64.20454 218.4
64.23788 218.4
64.26664 218.4
64.29674 218.4
64.32544 218.4
64.35555 218.4
64.3854 218.4
64.41446 218.4
64.44514 218.4
64.47617 218.4
64.50951 218.4
64.53908 218.4
64.57241 218.4
64.60353 218.4
64.63465 218.4
64.66295 218.4
64.69271 218.4
64.72292 218.4
64.75616 218.4
64.7848 218.4
64.81813 218.4
64.84616 218.4
64.87754 218.4
64.91087 218.4
64.94186 218.4
64.97215 218.4
65.00541 218.4
65.0378 218.4
65.06657 218.4
65.09739 218.4
65.1269 218.4
65.16023 218.4
65.18984 218.4
65.22318 218.4
65.25651 218.4
65.28502 218.4
65.31487 218.4
65.34374 218.4
65.37672 218.4
65.41006 218.4
65.43863 218.4
65.47196 218.4
65.50529 218.4
65.53586 218.4
65.56613 218.4
65.59504 218.4
65.62837 218.4
65.6608 218.4
65.68852 218.4
65.71764 218.4
65.7465 218.4
65.77938 218.4
65.80839 218.4
65.84172 218.4
65.86884 218.4
65.90218 218.4
65.93186 218.4
65.96172 218.4
65.991 218.4
66.02153 218.4
66.0505 218.4
66.08344 218.4
66.11436 218.4
66.1477 218.4
66.17973 218.4
66.20991 218.4
66.2381 218.4
66.26755 218.4
66.30015 218.4
66.32808 218.4
66.36141 218.4
66.39046 218.4
66.41814 218.4
66.44987 218.4
66.4814 218.4
66.51023 218.4
66.54049 218.4
66.56934 218.4
66.60034 218.4
66.63366 218.4
66.66302 218.4
66.69139 218.4
66.72144 218.4
66.75417 218.4
66.78226 218.4
66.81522 218.4
66.84453 218.4
66.87313 218.4
66.90269 218.4
66.93602 218.4
66.96578 218.4
66.99834 218.4
67.03048 218.4
67.05869 218.4
67.08857 218.4
67.12158 218.4
67.15039 218.4
67.17905 218.4
67.20918 218.4
67.24251 218.4
67.27319 218.4
67.3035 218.4
67.33142 218.4
67.36475 218.4
67.39415 218.4
67.42748 218.4
67.46082 218.4
67.48878 218.4
67.51699 218.4
67.54677 218.4
67.57574 218.4
67.6046 218.4
67.63432 218.4
67.66371 218.4
67.69532 218.4
67.728 218.4
67.76133 218.4
67.7917 218.4
67.82069 218.4
67.8521 218.4
67.8801 218.4
67.91051 218.4
67.93951 218.4
67.9684 218.4
68.00121 218.4
68.03326 218.4
68.06264 218.4
68.09592 218.4
68.12926 218.4
68.15888 218.4
68.19043 218.4
68.22135 218.4
68.25468 218.4
68.28356 218.4
68.31467 218.4
68.34407 218.4
68.37432 218.4
68.40273 218.4
68.43278 218.4
68.46338 218.4
68.49671 218.4
68.52432 218.4
68.55766 218.4
68.58695 218.4
68.6158 218.4
68.64539 218.4
68.67414 218.4
68.70183 218.4
68.73149 218.4
68.76161 218.4
68.79478 218.4
68.82812 218.4
68.86145 218.4
68.88972 218.4
68.91959 218.4
68.95292 218.4
68.98051 218.4
69.01384 218.4
69.04233 218.4
69.07172 218.4
69.10169 218.4
69.13432 218.4
69.1623 218.4
69.19478 218.4
69.22296 218.4
69.25364 218.4
69.28298 218.4
69.31631 218.4
69.34834 218.4
69.37982 218.4
69.40997 218.4
69.44085 218.4
69.46958 218.4
69.50291 218.4
69.53132 218.4
69.56465 218.4
69.59798 218.4
69.62646 218.4
69.6593 218.4
69.68839 218.4
69.71667 218.4
69.74835 218.4
69.78168 218.4
69.81137 218.4
69.8447 218.4
69.87466 218.4
69.90713 218.4
69.9368 218.4
69.9674 218.4
69.99545 218.4
70.0255 218.4
70.05883 218.4
70.0888 218.4
70.12213 218.4
70.15483 218.4
70.18232 218.4
70.21274 218.4
70.24159 218.4
70.27071 218.4
70.30404 218.4
70.33737 218.4
70.36958 218.4
70.39986 218.4
70.43215 218.4
70.46042 218.4
70.49055 218.4
70.5209 218.4
70.54935 218.4
70.5821 218.4
70.61172 218.4
70.64207 218.4
70.67451 218.4
70.7056 218.4
70.73355 218.4
70.76548 218.4
70.79691 218.4
70.82925 218.4
70.86259 218.4
70.89255 218.4
70.92099 218.4
70.95084 218.4
70.97946 218.4
71.01266 218.4
71.046 218.4
71.07645 218.4
71.10857 218.4
71.14161 218.4
71.17303 218.4
71.20408 218.4
71.23609 218.4
71.26488 218.4
71.29287 218.4
71.3262 218.4
71.35808 218.4
71.39041 218.4
71.41942 218.4
71.45275 218.4
71.48039 218.4
71.5127 218.4
71.54414 218.4
71.57407 218.4
71.6074 218.4
71.63605 218.4
71.66411 218.4
71.69744 218.4
71.72874 218.4
71.75893 218.4
71.78825 218.4
71.82051 218.4
71.85144 218.4
71.88477 218.4
71.914 218.4
71.9422 218.4
71.97169 218.4
72.00044 218.4
72.02943 218.4
72.06276 218.4
72.09609 218.4
72.12745 218.4
72.15894 218.4
72.18937 218.4
72.21712 218.4
72.2457 218.4
72.27537 218.4
72.30382 218.4
72.33715 218.4
72.36689 218.4
72.39755 218.4
72.42901 218.4
72.4622 218.4
72.4902 218.4
72.52353 218.4
72.55222 218.4
72.58555 218.4
72.61888 218.4
72.65057 218.4
72.6822 218.4
72.7116 218.4
72.74075 218.4
72.77118 218.4
72.80451 218.4
72.83784 218.4
72.86625 218.4
72.89539 218.4
72.92673 218.4
72.95582 218.4
72.9866 218.4
73.01745 218.4
73.05078 218.4
73.08034 218.4
73.11367 218.4
73.14104 218.4
73.17146 218.4
73.20303 218.4
73.23251 218.4
73.26415 218.4
73.2959 218.4
73.32777 218.4
73.3604 218.4
73.39374 218.4
73.42164 218.4
73.4505 218.4
73.48274 218.4
73.51462 218.4
73.54795 218.4
73.57956 218.4
73.60752 218.4
73.63627 218.4
73.66508 218.4
73.69267 218.4
73.72262 218.4
73.75595 218.4
73.78683 218.4
73.81908 218.4
73.85172 218.4
73.88217 218.4
73.9106 218.4
73.94212 218.4
73.97188 218.4
74.0042 218.4
74.03753 218.4
74.06509 218.4
74.09627 218.4
74.12606 218.4
74.1562 218.4
74.18954 218.4
74.22287 218.4
74.25264 218.4
74.28597 218.4
74.31424 218.4
74.34524 218.4
74.37808 218.4
74.41142 218.4
74.44168 218.4
74.47086 218.4
74.50037 218.4
74.53087 218.4
74.5642 218.4
74.59304 218.4
74.62093 218.4
74.65018 218.4
74.68071 218.4
74.7084 218.4
74.7406 218.4
74.77122 218.4
74.79875 218.4
74.82735 218.4
74.85834 218.4
74.89167 218.4
74.925 218.4
74.95834 218.4
74.99167 218.4
75.02438 218.4
75.05557 218.4
75.08683 218.4
75.12016 218.4
75.15193 218.4
75.17966 218.4
75.20914 218.4
75.24013 218.4
75.26846 218.4
75.29885 218.4
75.33218 218.4
75.36051 218.4
75.39337 218.4
75.42424 218.4
75.45609 218.4
75.4852 218.4
75.51854 218.4
75.54742 218.4
75.58045 218.4
75.61236 218.4
75.64141 218.4
75.67233 218.4
75.70158 218.4
75.72978 218.4
75.76044 218.4
75.79183 218.4
75.82348 218.4
75.85452 218.4
75.88328 218.4
75.91661 218.4
75.94981 218.4
75.98094 218.4
76.01059 218.4
76.04181 218.4
76.0714 218.4
76.09896 218.4
76.12891 218.4
76.15955 218.4
76.18871 218.4
76.21776 218.4
76.24706 218.4
76.2757 218.4
76.30669 218.4
76.3373 218.4
76.37064 218.4
76.40004 218.4
76.43085 218.4
76.45824 218.4
76.4871 218.4
76.51567 218.4
76.54485 218.4
76.57449 218.4
76.60645 218.4
76.63797 218.4
76.66805 218.4
76.69756 218.4
76.72955 218.4
76.76288 218.4
76.79621 218.4
76.82409 218.4
76.85278 218.4
76.88487 218.4
76.91274 218.4
76.94608 218.4
76.97563 218.4
77.0034 218.4
77.0322 218.4
77.06506 218.4
77.09326 218.4
77.12217 218.4
77.1555 218.4
77.18394 218.4
77.21465 218.4
77.2468 218.4
77.27695 218.4
77.30555 218.4
77.33599 218.4
77.36393 218.4
77.39403 218.4
77.42736 218.4
77.45566 218.4
77.48502 218.4
77.51537 218.4
77.54871 218.4
77.58204 218.4
77.61213 218.4
77.6412 218.4
77.67389 218.4
77.70722 218.4
77.73667 218.4
77.77 218.4
77.79954 218.4
77.82979 218.4
77.85841 218.4
77.88779 218.4
77.91578 218.4
77.94719 218.4
77.97833 218.4
78.00634 218.4
78.03925 218.4
78.06835 218.4
78.09816 218.4
78.1315 218.4
78.16483 218.4
78.19498 218.4
78.22581 218.4
78.25914 218.4
78.28769 218.4
78.31638 218.4
78.34879 218.4
78.37631 218.4
78.40783 218.4
78.43968 218.4
78.46731 218.4
78.49676 218.4
78.53009 218.2
78.55772 218.2
78.59105 218.2
78.62006 218.2
78.65181 218.2
78.68514 218.2
78.71399 218.2
78.74732 218.2
78.77826 217.75
78.80749 217.75
78.83905 216.45
78.86739 216.45
78.89738 214.95
78.92504 212.3
78.9544 212.3
78.98773 209.25
79.01633 209.25
79.04952 206.4
79.07824 203.15
79.10659 203.15
79.13654 199.85
79.16988 197.65
79.20316 197.65
79.23335 194.6
79.26629 192
79.29426 192
79.32759 188.7
79.35796 188.7
79.38594 186.1
79.41643 182.6
79.44745 182.6
79.47585 179.75
79.5089 179.75
79.54223 178
79.5694 176.7
79.60273 176.7
79.63606 175.8
79.66933 174.5
79.70267 174.5
79.73528 172.55
79.76862 170.6
79.79803 170.6
79.82936 167.95
79.86269 165.1
79.89406 165.1
79.92535 162.7
79.95309 159.9
79.98227 159.9
80.01402 157.9
80.04438 157.9
80.07771 152.9
80.11105 148.75
80.14291 148.75
80.17603 144.15
80.20937 135.85
80.2427 135.85
80.27603 130.6
80.30936 124.5
80.33887 124.5
80.3722 118.8
80.40265 115.3
80.4327 115.3
80.46171 111.4
80.49162 111.4
80.52191 108.55
80.55475 103.95
80.58808 103.95
80.61734 99.8
80.65057 96.75
80.6804 96.75
80.70957 92.15
80.73864 92.15
80.77197 86.7
80.80216 81.65
80.83549 81.65
80.86883 75.55
80.89836 70.75
80.93169 70.75
80.96147 65.5
80.99192 59.15
81.02455 59.15
81.05319 54.6
81.08244 54.6
81.11533 48.7
81.14694 42.8
81.17862 42.8
81.21195 39.3
81.24184 34.5
81.27229 34.5
81.30164 29.9
81.33071 29.9
81.36404 25.1
81.39738 22.5
81.42721 22.5
81.46032 16.8
81.48965 11.35
81.51974 11.35
81.55308 6.95
81.58519 1.5
81.61559 1.5
81.64376 -1.7
81.67319 -1.7
81.70652 -8.7
81.73805 -13.1
81.76726 -13.1
81.80059 -15.9
81.82906 -19
81.86239 -19
81.89193 -22.9
81.92453 -27.3
81.95728 -27.3
81.98899 -31.2
82.01897 -31.2
82.04733 -36.65
82.07681 -42.35
82.11015 -42.35
82.13966 -47.15
82.17299 -52.6
82.20171 -52.6
82.23019 -58.75
82.26105 -58.75
82.29378 -64
82.32711 -70.3
82.35973 -70.3
82.39206 -75.1
82.42539 -81
82.45872 -81
82.49093 -85.8
82.51976 -89.3
82.55309 -89.3
82.58307 -93.9
82.61427 -99.35
82.64484 -99.35
82.67728 -103.5
82.70598 -103.5
82.73893 -109.2
82.76956 -114
82.80289 -114
82.83368 -120.8
82.86217 -128
82.89225 -128
82.92181 -134.1
82.95128 -134.1
82.98164 -140.45
83.01472 -146.55
83.0435 -146.55
83.07302 -151.8
83.10233 -151.8
83.13037 -158.8
83.16309 -164.25
83.19221 -164.25
83.2206 -169.95
83.24995 -169.95
83.28271 -175.8
83.31207 -180.85
83.34129 -180.85
83.3745 -188.05
83.40344 -188.05
83.43316 -193.3
83.46212 -197.45
83.49245 -197.45
83.52103 -202.5
83.55436 -202.5
83.58462 -207.7
83.61513 -211.2
83.64846 -211.2
83.67838 -215.8
83.71101 -218.4
83.74039 -218.4
83.77253 -218.4
83.80182 -218.4
83.83057 -218.4
83.86153 -218.4
83.89189 -218.4
83.92522 -218.4
83.95488 -218.4
83.98589 -218.4
84.01923 -218.4
84.04968 -218.4
84.08302 -218.4
84.11301 -218.4
84.14567 -218.4
84.179 -218.4
84.20808 -218.4
84.23633 -218.4
84.26542 -218.4
84.29536 -218.4
84.32741 -218.4
84.35751 -218.4
84.38758 -218.4
84.42091 -218.4
84.45425 -218.4
84.48345 -218.4
84.51225 -218.4
84.54356 -218.4
84.57689 -218.4
84.60945 -218.4
84.64053 -218.4
84.67387 -218.4
84.70386 -218.4
84.73593 -218.4
84.76926 -218.4
84.8015 -218.4
84.8342 -218.4
84.86753 -218.4
84.8993 -218.4
84.92788 -218.4
84.96121 -218.4
84.99444 -218.4
85.02279 -218.4
85.05313 -218.4
85.08195 -218.4
85.11226 -218.4
85.14362 -218.2
85.17258 -218.2
85.20381 -218.2
85.23714 -218.2
85.27048 -217.75
85.30212 -216
85.33176 -216
85.35996 -214.25
85.3933 -212.3
85.42181 -212.3
85.45514 -210.35
85.48394 -210.35
85.51677 -209.05
85.54606 -207.3
85.57657 -207.3
85.60586 -206.4
85.63564 -206.4
85.66555 -205.55
85.69759 -204.2
85.72709 -204.2
85.7584 -202.9
85.79173 -202.9
85.82022 -201.6
85.84914 -200.05
85.88136 -200.05
85.90894 -198.75
85.93896 -198.75
85.96816 -197.65
85.99702 -196.6
86.0298 -196.6
86.05853 -195.05
86.09085 -195.05
86.12103 -193.95
86.15436 -192.45
86.18487 -192.45
86.21812 -191.1
86.2504 -189.6
86.28252 -189.6
86.31485 -188.3
86.34791 -186.95
86.38118 -186.95
86.40998 -185.65
86.44026 -185.65
86.4707 -184.35
86.50404 -183.25
86.53619 -181.7
86.56609 -181.7
86.59872 -180
86.62914 -180
86.65771 -178.65
86.68629 -177.35
86.71552 -177.35
86.74343 -177.35
86.77676 -177.35
86.80881 -177.35
86.83672 -177.35
86.86669 -177.35
86.8979 -177.35
86.92698 -177.35
86.95617 -177.35
86.98524 -177.35
87.01805 -177.35
87.04669 -177.35
87.07574 -177.35
87.10368 -177.35
87.13388 -177.35
87.16306 -177.35
87.1964 -177.55
87.22675 -177.55
87.26009 -178.25
87.28837 -179.55
87.3189 -179.55
87.35046 -181.7
87.38284 -184.15
87.41617 -184.15
87.44511 -186.1
87.47474 -186.1
87.50807 -188.7
87.53696 -191.35
87.56752 -191.35
87.59796 -193.5
87.63129 -195.7
87.65917 -195.7
87.68808 -198.3
87.72123 -201.15
87.74912 -201.15
87.77954 -204.45
87.81186 -204.45
87.84151 -207.3
87.8716 -212.1
87.90111 -212.1
87.92991 -215.6
87.96324 -218.4
87.99657 -218.4
88.02466 -218.4
88.05315 -218.4
88.08303 -218.4
88.11495 -218.4
88.14345 -218.4
88.17678 -218.4
88.20767 -218.4
88.241 -218.4
88.27434 -218.4
88.30469 -218.4
88.33545 -218.4
88.36482 -218.4
88.39306 -218.4
88.42171 -218.4
88.45253 -218.4
88.48052 -218.4
88.51385 -218.4
88.54565 -218.4
88.57405 -218.4
88.60738 -218.4
88.63857 -218.4
88.66881 -218.4
88.69891 -218.4
88.73224 -218.4
88.76153 -218.4
88.79242 -218.4
88.82491 -218.4
88.8556 -218.4
88.88893 -218.4
88.92226 -218.4
88.95047 -218.4
88.98082 -218.4
89.01415 -218.4
89.04234 -218.4
89.07262 -218.4
89.10119 -218.4
89.12904 -218.4
89.15899 -218.4
89.19232 -218.4
89.22529 -218.4
89.25471 -218.4
89.28299 -218.4
89.31423 -218.4
89.34621 -218.4
89.37652 -218.4
89.40849 -218.4
89.44183 -218.4
89.47437 -218.4
89.5061 -218.4
89.53514 -218.4
89.56525 -218.4
89.59399 -218.4
89.62602 -218.4
89.6581 -218.4
89.68652 -218.4
89.7154 -218.4
89.74463 -218.4
89.77523 -218.4
89.80856 -218.4
89.8419 -218.4
89.87045 -218.4
89.90378 -218.4
89.93433 -218.4
89.96766 -218.4
89.99667 -218.4
90.03 -218.4
90.05926 -218.4
90.09259 -218.4
90.12592 -218.4
90.15682 -218.4
90.18614 -218.4
90.21806 -218.4
90.2514 -218.4
90.27977 -218.4
90.30988 -218.4
90.33923 -218.2
90.37256 -218.2
90.4032 -218.2
90.43269 -218.2
90.46603 -218.2
90.4968 -218.2
90.52889 -218.2
90.56174 -218.2
90.59045 -217.55
90.6229 -216
90.65623 -216
90.6871 -213.85
90.71464 -211.85
90.74606 -211.85
90.77566 -210.1
90.80388 -210.1
90.83631 -208.15
90.86964 -205.55
90.89742 -205.55
90.92628 -204
90.95872 -204
90.98705 -200.05
91.01927 -197.25
91.04996 -197.25
91.08089 -192.85
91.11131 -192.85
91.14214 -187.85
91.17421 -183.7
91.20446 -183.7
91.2378 -178.25
91.26772 -174.1
91.29745 -174.1
91.32672 -167.3
91.35708 -167.3
91.38664 -163.15
91.41727 -158.35
91.45061 -158.35
91.48028 -154
91.51361 -150.25
91.54197 -150.25
91.57402 -147.2
91.60388 -147.2
91.6336 -140.85
91.66476 -135
91.69809 -135
91.72659 -129.1
91.75992 -124.25
91.79325 -124.25
91.82226 -119.7
91.85165 -119.7
91.88178 -115.3
91.9108 -111.15
91.94102 -111.15
91.97215 -107
92.00063 -107
92.03261 -105.05
92.06342 -103.75
92.0928 -103.75
92.12432 -101.1
92.15695 -98.7
92.18652 -98.7
92.21527 -96.75
92.24517 -96.75
92.27667 -94.35
92.30714 -91.95
92.3369 -91.95
92.36614 -89.75
92.39948 -89.75
92.43104 -87.35
92.46209 -86.5
92.49507 -86.5
92.52586 -85.15
92.55428 -84.95
92.58708 -84.95
92.61864 -84.95
92.64926 -84.95
92.67857 -84.95
92.71191 -84.95
92.73991 -84.95
92.76971 -84.95
92.80173 -84.95
92.83507 -84.95
92.86317 -84.95
92.89271 -84.95
92.92336 -84.95
92.9567 -84.95
92.99003 -84.95
93.02337 -84.95
93.0567 -84.95
93.08527 -84.95
93.11861 -84.95
93.15194 -84.95
93.18368 -84.95
93.21701 -84.95
93.24583 -84.95
93.27916 -84.95
93.31249 -84.95
93.34395 -85.15
93.37716 -85.15
93.40601 -85.15
93.43801 -85.15
93.47134 -85.15
93.50063 -85.15
93.52977 -85.15
93.56049 -85.15
93.58919 -85.15
93.62252 -85.15
93.65585 -85.15
93.68458 -85.15
93.7132 -85.15
93.74338 -85.15
93.77347 -85.15
93.8018 -85.15
93.83167 -85.15
93.86004 -85.15
93.89146 -85.15
93.92246 -85.15
93.95195 -85.15
93.98215 -85.15
94.01506 -85.15
94.0452 -85.15
94.07853 -85.15
94.10995 -85.15
94.13848 -85.15
94.17181 -85.15
94.20489 -85.15
94.23338 -85.15
94.26498 -85.15
94.2982 -85.15
94.32864 -85.15
94.35812 -85.15
94.39146 -85.15
94.42028 -85.15
94.45113 -85.15
94.48298 -85.15
94.51122 -85.15
94.5408 -85.15
94.57413 -85.15
94.60747 -85.15
94.6376 -85.15
94.6684 -85.15
94.69637 -85.15
94.72585 -85.15
94.75919 -85.15
94.78984 -85.15
94.82317 -85.15
94.85368 -85.15
94.8816 -85.15
94.91226 -85.15
94.94306 -85.15
94.97562 -85.15
95.00896 -85.15
95.0381 -85.15
95.06877 -85.15
95.09861 -85.15
95.13194 -85.15
95.16257 -85.4
95.19353 -85.4
95.22686 -85.4
95.26019 -85.4
95.28997 -85.4
95.3233 -85.4
95.35552 -85.4
95.3864 -85.4
95.41895 -85.4
95.44831 -85.4
95.48048 -85.4
95.51118 -85.4
95.54222 -85.4
95.5733 -85.4
95.60543 -85.4
95.63754 -85.4
95.6671 -85.4
95.6964 -85.4
95.7255 -85.4
95.75632 -85.8
95.78612 -85.8
95.81525 -86.25
95.84858 -86.25
95.87984 -86.7
95.90983 -87.35
95.93935 -87.35
95.96815 -88
95.99637 -88
96.02735 -88.45
96.05891 -88.65
96.0889 -88.65
96.1201 -89.1
96.15343 -89.3
96.18461 -89.3
96.21564 -89.3
96.24813 -89.3
96.27752 -89.3
96.3094 -89.3
96.34095 -89.3
96.37428 -89.3
96.40726 -89.3
96.4406 -89.3
96.47355 -89.3
96.50556 -89.3
96.53823 -89.3
96.56693 -89.3
96.60027 -89.3
96.6336 -89.3
96.66478 -89.3
96.69811 -89.3
96.73145 -89.3
96.75952 -89.3
96.79211 -89.3
96.82343 -89.3
96.85193 -89.3
96.88089 -89.3
96.91422 -89.3
96.94131 -89.3
96.97032 -89.3
96.99911 -89.3
97.02882 -89.3
97.05758 -89.3
97.08948 -89.3
97.11907 -89.3
97.14896 -89.3
97.1823 -89.3
97.21229 -89.3
97.24562 -89.3
97.2762 -89.3
97.30491 -89.3
97.33444 -89.3
97.36777 -89.3
97.40045 -89.3
97.42986 -89.3
97.4632 -89.3
97.49653 -89.3
97.5265 -89.3
97.55631 -89.3
97.58965 -89.3
97.61934 -89.3
97.64981 -89.3
97.67882 -89.1
97.71215 -89.1
97.74287 -88.65
97.77198 -88.45
97.80088 -88.45
97.83421 -88
97.86588 -87.8
97.899 -87.8
97.92917 -87.55
97.95908 -87.55
97.98799 -87.15
98.02132 -86.9
98.0517 -86.9
98.08503 -86.7
98.11836 -86.5
98.14584 -86.5
98.17902 -86.05
98.21165 -85.4
98.24357 -85.4
98.27532 -84.3
98.30613 -84.3
98.33823 -83
98.36944 -81.9
98.40277 -81.9
98.43137 -81
98.46346 -80.15
98.4968 -80.15
98.52527 -78.6
98.55803 -78.6
98.58653 -76.65
98.61446 -74.25
98.64394 -74.25
98.67496 -71.65
98.7037 -71.65
98.73518 -68.35
98.76852 -65.5
98.79755 -65.5
98.82931 -61.15
98.86264 -57.45
98.89217 -57.45
98.92448 -53.05
98.95377 -48.9
98.98238 -48.9
99.01294 -43.9
99.04305 -43.9
99.07323 -39.3
99.10204 -34.5
99.13062 -34.5
99.1632 -30.1
99.19653 -26.85
99.22627 -26.85
99.25607 -23.15
99.28573 -23.15
99.31627 -19.65
99.34404 -19.65
99.37672 -14.15
99.40567 -9.6
99.439 -9.6
99.47234 -3.25
99.50137 1.3
99.53132 1.3
99.56465 10
99.59798 17.45
99.63012 17.45
99.659 24.45
99.68835 24.45
99.71677 31.2
99.74733 37.35
99.77937 37.35
99.81205 45
99.84538 52.2
99.87872 52.2
99.91205 57
99.94284 63.1
99.97259 63.1
100.0019 69.9
100.0313 69.9
100.0632 76
100.0927 83.2
100.126 83.2
100.1563 89.1
100.185 96.1
100.2183 96.1
100.247 102.2
100.2804 108.3
100.3096 108.3
100.3384 114.2
100.3664 114.2
100.3961 118.6
100.4256 118.6
100.4589 123.6
100.4916 128.2
100.5222 128.2
100.5547 131.25
100.584 135.65
100.6144 135.65
100.6469 140.2
100.6803 143.3
100.7125 143.3
100.7442 146.75
100.7749 146.75
100.8082 150.05
100.8361 152.25
100.868 152.25
100.9005 154.65
100.9296 156.4
100.9583 156.4
100.988 158.35
101.0168 158.35
101.0459 160.3
101.0764 162.3
101.1086 162.3
101.1405 163.35
101.1706 163.35
101.2012 164.9
101.2336 166
101.267 166
101.2946 166.85
101.3238 167.5
101.3527 167.5
101.3822 167.95
101.4156 167.95
101.447 168.2
101.4793 168.2
101.5127 168.2
101.5415 168.2
101.5692 168.2
101.5979 168.2
101.6312 168.2
101.6634 168.2
101.6967 168.2
101.7283 168.2
101.7563 168.2
101.7859 168.2
101.8189 168.2
101.8522 168.2
101.8823 168.2
101.9135 168.2
101.9434 168.2
101.9766 168.2
102.01 168.2
102.0426 168.2
102.0729 168.2
102.1022 168.2
102.1339 168.2
102.1656 168.2
102.1967 168.2
102.2293 168.2
102.2598 168.2
102.291 168.2
102.3184 168.2
102.3473 168.2
102.3806 168.2
102.4139 168.2
102.4473 168.2
102.4759 168.2
102.5059 168.2
102.5392 168.2
102.5691 168.2
102.6024 168.2
102.632 168.2
102.6618 168.2
102.6921 168.2
102.7226 168.2
102.7559 168.2
102.7843 168.2
102.8152 168.2
102.8484 168.2
102.8782 168.2
102.9115 168.2
102.9408 168.2
102.9727 168.2
103.0031 168.2
103.0364 168.2
103.0677 168.2
103.0964 168.2
103.1258 168.2
103.1534 168.2
103.1823 168.2
103.2116 168.2
103.2394 168.2
103.2727 168.2
103.3029 168.2
103.3307 168.2
103.3595 168.2
103.3891 168.2
103.4182 168.2
103.447 168.2
103.4758 168.2
103.5071 168.2
103.5351 168.2
103.5649 168.2
103.5975 168.2
103.6305 168.2
103.6595 168.2
103.6887 168.2
103.7197 168.2
103.7531 168.2
103.7808 168.2
103.8141 168.2
103.8428 168.2
103.8718 168.2
103.9007 168.2
103.9292 168.2
103.9591 168.2
103.9924 168.2
104.0257 168.2
104.0591 168.2
104.0924 168.2
104.1236 168.2
104.151 168.2
104.1797 168.2
104.2116 168.2
104.2423 168.2
104.2743 168.2
104.307 168.2
104.335 168.2
104.3638 168.2
104.3931 168.2
104.4231 168.2
104.4552 168.2
104.4848 168.2
104.513 168.2
104.5463 168.2
104.5797 168.2
104.6129 168.2
104.6437 168.2
104.677 168.2
104.7079 168.2
104.7412 168.2
104.7746 168.2
104.8068 168.2
104.8359 168.2
104.8676 168.2
104.8968 168.2
104.9301 168.2
104.9611 168.2
104.9889 168.2
105.0223 168.2
105.0545 168.2
105.0852 168.2
105.1151 168.2
105.1459 168.2
105.1741 168.2
105.2025 168.2
105.2324 168.2
105.2649 168.2
105.2941 168.2
105.3247 168.2
105.3523 168.2
105.381 168.2
105.4117 168.2
105.4402 168.2
105.4694 168.2
105.5028 168.2
105.5341 168.2
105.5657 168.2
105.5973 168.2
105.6259 168.2
105.6561 168.2
105.6862 168.2
105.7151 168.2
105.7485 168.2
105.7818 168.2
105.8151 168.2
105.8436 168.2
105.8721 168.2
105.9008 168.2
105.9294 168.2
105.9578 168.2
105.9901 168.2
106.0234 168.2
106.0564 168.2
106.0846 168.2
106.1158 168.2
106.1491 168.2
106.1824 168.2
106.2125 168.2
106.2457 168.2
106.279 168.2
106.3112 168.2
106.3394 168.2
106.3681 168.2
106.3975 168.2
106.4308 168.2
106.4593 168.2
106.4926 168.2
106.526 168.2
106.5555 168.2
106.5889 168.2
106.6222 168.2
106.6554 168.2
106.6858 168.2
106.7174 168.2
106.7507 168.2
106.7838 168.2
106.8132 168.2
106.8427 168.2
106.8722 168.2
106.9045 168.2
106.9349 168.2
106.9682 168.2
106.9986 168.2
107.0273 168.2
107.0561 168.2
107.0864 168.2
107.1151 168.2
107.1454 168.2
107.1768 168.2
107.2102 168.2
107.2413 168.2
107.2746 168.2
107.3077 168.2
107.3384 168.2
107.3683 168.2
107.3965 168.2
107.4296 168.2
107.4629 168.2
107.4914 168.2
107.5221 168.2
107.5511 168.2
107.5841 168.2
107.6174 168.2
107.6507 168.2
107.6792 168.2
107.711 168.2
107.7398 168.2
107.768 168.2
107.7975 168.2
107.8308 168.2
107.8641 168.2
107.8975 168.2
107.9264 168.2
107.955 168.2
107.987 168.2
108.0175 168.2
108.0508 168.2
108.0812 168.2
108.1138 168.2
108.1422 168.2
108.1733 168.2
108.2066 168.2
108.2354 168.2
108.2648 168.2
108.2963 168.2
108.3244 168.2
108.3539 168.2
108.3873 168.2
108.4152 168.2
108.4467 168.2
108.48 168.2
108.5127 168.2
108.5417 168.2
108.5727 168.2
108.6027 168.2
108.6342 168.2
108.6669 168.2
108.6954 168.2
108.7288 168.2
108.7596 168.2
108.788 168.2
108.8165 168.2
108.8492 168.2
108.8772 168.2
108.907 168.2
108.9399 168.2
108.9733 168.2
109.0026 168.2
109.0352 168.2
109.0632 168.2
109.0932 168.2
109.1243 168.2
109.1545 168.2
109.1878 168.2
109.2177 168.2
109.248 168.2
109.2778 168.2
109.3097 168.2
109.3389 168.2
109.369 168.2
109.3994 168.2
109.4275 168.2
109.4606 168.2
109.4939 168.2
109.5255 168.2
109.5559 168.2
109.5878 168.2
109.6212 168.2
109.6517 168.2
109.6851 168.2
109.7172 168.2
109.7474 168.2
109.7773 168.2
109.8054 168.2
109.8351 168.2
109.8647 168.2
109.8951 168.2
109.9255 168.2
109.9557 168.2
109.9871 168.2
110.0205 168.2
110.0522 168.2
110.0839 168.2
110.1157 168.2
110.1444 168.2
110.1741 168.2
110.2074 168.2
110.2401 168.2
110.271 168.2
110.3002 168.2
110.3336 168.2
110.3626 168.2
110.394 168.2
110.4234 168.2
110.4543 168.2
110.4876 168.2
110.5173 168.2
110.5454 168.2
110.5778 168.2
110.6112 168.2
110.6436 168.2
110.6769 168.2
110.7102 168.2
110.7386 168.2
110.7693 168.2
110.8003 168.2
110.8336 168.2
110.8646 168.2
110.8966 168.2
110.9252 168.2
110.9586 168.2
110.9877 168.2
111.0191 168.2
111.0477 168.2
111.0795 168.2
111.1077 168.2
111.1408 168.2
111.1711 168.2
111.2021 168.2
111.2354 168.2
111.2688 168.2
111.2992 168.2
111.3284 168.2
111.3577 168.2
111.3868 168.2
111.4202 168.2
111.4517 168.2
111.482 168.2
111.5152 168.2
111.5442 168.2
111.5733 168.2
111.6059 168.2
111.6349 168.2
111.6622 168.2
111.6904 168.2
111.7192 168.2
111.7523 168.2
111.7837 168.2
111.8171 168.2
111.8463 168.2
111.8762 168.2
111.9062 168.2
111.9357 168.2
111.969 168.2
112.0024 168.2
112.0352 168.2
112.0674 168.2
112.0988 168.2
112.1263 168.2
112.1591 168.2
112.1898 168.2
112.2183 168.2
112.2489 168.2
112.2823 168.2
112.3105 168.2
112.339 168.2
112.3681 168.2
112.399 168.2
112.4324 168.2
112.4625 168.2
112.4927 168.2
112.5249 168.2
112.5582 168.2
112.5859 168.2
112.6164 168.2
112.6459 168.2
112.6744 168.2
112.7061 168.2
112.7388 168.2
112.7689 168.2
112.7989 168.2
112.8323 168.2
112.8612 168.2
112.8923 168.2
112.9229 168.2
112.9562 168.2
112.988 168.2
113.018 168.2
113.0492 168.2
113.0813 168.2
113.1109 168.2
113.1395 168.2
113.1696 168.2
113.1993 168.2
113.2269 168.2
113.2564 168.2
113.2856 168.2
113.3144 168.2
113.3437 168.2
113.3763 168.2
113.4076 168.2
113.4366 168.2
113.4698 168.2
113.4981 168.2
113.5304 168.2
113.563 168.2
113.5963 168.2
113.6297 168.2
113.663 168.2
113.6958 168.2
113.7254 168.2
113.7542 168.2
113.7849 168.2
113.8148 168.2
113.8447 168.2
113.8733 168.2
113.9015 168.2
113.9329 168.2
113.9631 168.2
113.9934 168.2
114.0221 168.2
114.0505 168.2
114.0839 168.2
114.1126 168.2
114.1419 168.2
114.1708 168.2
114.204 168.2
114.2353 168.2
114.2686 168.2
114.2995 168.2
114.3311 168.2
114.3603 168.2
114.3922 168.2
114.4238 168.2
114.454 168.2
114.4831 168.2
114.5118 168.2
114.5421 168.2
114.5736 168.2
114.6067 168.2
114.6353 168.2
114.6646 168.2
114.6979 168.2
114.7257 168.2
114.7555 168.2
114.7887 168.2
114.8205 168.2
114.8492 168.2
114.8767 168.2
114.9065 168.2
114.9357 168.2
114.9667 168.2
114.9973 168.2
115.0306 168.2
115.0583 168.2
115.0916 168.2
115.121 168.2
115.1487 168.2
115.1773 168.2
115.2082 168.2
115.2396 168.2
115.2717 168.2
115.3027 168.2
115.3324 168.2
115.3616 168.2
115.39 168.2
115.4188 168.2
115.4512 168.2
115.4845 168.2
115.5133 168.2
115.5423 168.2
115.5712 168.2
115.599 168.2
115.629 168.2
115.6623 168.2
115.6934 168.2
115.7232 168.2
115.7518 168.2
115.7809 168.2
115.8143 168.2
115.8442 168.2
115.8738 168.2
115.9045 168.2
115.9356 168.2
115.9653 168.2
115.9957 168.2
116.0257 168.2
116.0553 168.2
116.0854 168.2
116.1136 168.2
116.1421 168.2
116.1714 168.2
116.2028 168.2
116.2308 168.2
116.2641 168.2
116.2943 168.2
116.327 168.2
116.3561 168.2
116.3876 168.2
116.416 168.2
116.445 168.2
116.4739 168.2
116.5021 168.2
116.5308 168.2
116.5632 168.2
116.5923 168.2
116.6257 168.2
116.655 168.2
116.6842 168.2
116.7124 168.2
116.7457 168.2
116.7782 168.2
116.8061 168.2
116.8364 168.2
116.8646 168.2
116.8936 168.2
116.9262 168.2
116.959 168.2
116.9907 168.2
117.021 168.2
117.0485 168.2
117.0813 168.2
117.1108 168.2
117.1401 168.2
117.1694 168.2
117.1993 168.2
117.2291 168.2
117.2594 168.2
117.2898 168.2
117.3176 168.2
117.3491 168.2
117.3795 168.2
117.4074 168.2
117.4367 168.2
117.4666 168.2
117.4999 168.2
117.5287 168.2
117.5596 168.2
117.5914 168.2
117.6223 168.2
117.6556 168.2
117.6862 168.2
117.7154 168.2
117.7448 168.2
117.7736 168.2
117.8069 168.2
117.8362 168.2
117.866 168.2
117.8993 168.2
117.9327 168.2
117.9628 168.2
117.9927 168.2
118.0254 168.2
118.053 168.2
118.0819 168.2
118.1124 168.2
118.1404 168.2
118.169 168.2
118.1983 168.2
118.2312 168.2
118.2645 168.2
118.2967 168.2
118.3276 168.2
118.3588 168.2
118.3873 168.2
118.4188 168.2
118.4499 168.2
118.4793 168.2
118.5113 168.2
118.5415 168.2
118.5728 168.2
118.6017 168.2
118.6321 168.2
118.6609 168.2
118.6882 168.2
118.7191 168.2
118.7525 168.2
118.7808 168.2
118.8092 168.2
118.8404 168.2
118.8725 168.2
118.905 168.2
118.9357 168.2
118.9654 168.2
118.9977 168.2
119.0286 168.2
119.0565 168.2
119.0899 168.2
119.1222 168.2
119.1498 168.2
119.1785 168.2
119.2079 168.2
119.2391 168.2
119.2676 168.2
119.2964 168.2
119.3255 168.2
119.3549 168.2
119.3839 168.2
119.413 168.2
119.4432 168.2
119.4725 168.2
119.5058 168.2
119.5356 168.2
119.5664 168.2
119.5979 168.2
119.6277 168.2
119.6611 168.2
119.6895 168.2
119.7184 168.2
119.7473 168.2
119.7768 168.2
119.8101 168.2
119.8387 168.2
119.8658 168.2
119.8992 168.2
119.9279 168.2
119.9555 168.2
119.9858 168.2
120.0187 168.2
120.0467 168.2
120.0758 168.2
120.1091 168.2
120.1424 168.2
120.1726 168.2
120.2025 168.2
120.2314 168.2
120.2648 168.2
120.2981 168.2
120.3295 168.2
120.361 168.2
120.3931 168.2
120.4203 168.2
120.4492 168.2
120.4804 168.2
120.5085 168.2
120.5376 168.2
120.5685 168.2
120.5968 168.2
120.6301 168.2
120.6632 168.2
120.6911 168.2
120.7204 168.2
120.7538 168.2
120.7829 168.2
120.8124 168.2
120.8411 168.2
120.8694 168.2
120.8986 168.2
120.9319 168.2
120.9599 168.2
120.989 168.2
121.0187 168.2
121.0514 168.2
121.0829 168.2
121.1151 168.2
121.144 168.2
121.1772 168.2
121.2105 168.2
121.2397 168.2
121.2706 168.2
121.299 168.2
121.328 168.2
121.3567 168.2
121.39 168.2
121.4178 168.2
121.447 168.2
121.4803 168.2
121.5071 168.2
121.538 168.2
121.5677 168.2
121.6008 168.2
121.6341 168.2
121.6675 168.2
121.6962 168.2
121.7273 168.2
121.7606 168.2
121.7881 168.2
121.8165 168.2
121.8498 168.2
121.882 168.2
121.9153 168.2
121.9468 168.2
121.9767 168.2
122.0093 168.2
122.0426 168.2
122.0719 168.2
122.1024 168.2
122.1336 168.2
122.1625 168.2
122.1914 168.2
122.2214 168.2
122.2509 168.2
122.2832 168.2
122.3118 168.2
122.3428 168.2
122.3719 168.2
122.4052 168.2
122.4331 168.2
122.4634 168.2
122.4939 168.2
122.522 168.2
122.5553 168.2
122.5856 168.2
122.6161 168.2
122.6461 168.2
122.6794 168.2
122.7128 168.2
122.7427 168.2
122.7732 168.2
122.8061 168.2
122.8367 168.2
122.87 168.2
122.8982 168.2
122.9293 168.2
122.9621 168.2
122.9902 168.2
123.0192 168.2
123.0491 168.2
123.0825 168.2
123.1115 168.2
123.1449 168.2
123.1772 168.2
123.2105 168.2
123.2404 168.2
123.2715 168.2
123.3033 168.2
123.3366 168.2
123.3645 168.2
123.3956 168.2
123.4246 168.2
123.4537 168.2
123.4826 168.2
123.5125 168.2
123.5404 168.2
123.5734 168.2
123.6044 168.2
123.6339 168.2
123.6642 168.2
123.6947 168.2
123.7237 168.2
123.7551 168.2
123.7885 168.2
123.8175 168.2
123.8474 168.2
123.8779 168.2
123.9062 168.2
123.9395 168.2
123.9694 168.2
123.9977 168.2
124.0265 168.2
124.0589 168.2
124.0868 168.2
124.1178 168.2
124.1511 168.2
124.1844 168.2
124.2166 168.2
124.2499 168.2
124.2799 168.2
124.3115 168.2
124.3449 168.2
124.3755 168.2
124.4088 168.2
124.439 168.2
124.4723 168.2
124.502 168.2
124.5333 168.2
124.5649 168.2
124.5939 168.2
124.6231 168.2
124.6526 168.2
124.6823 168.2
124.7133 168.2
124.7454 168.2
124.7747 168.2
124.8081 168.2
124.8367 168.2
124.8688 168.2
124.8976 168.2
124.9293 168.2
124.9612 168.2
124.9938 168.2
125.0271 168.2
125.0564 168.2
125.0863 168.2
125.1196 168.2
125.1479 168.2
125.1773 168.2
125.2053 168.2
125.2386 168.2
125.2687 168.2
125.2968 168.2
125.3299 168.2
125.3633 168.2
125.3914 168.2
125.4224 168.2
125.4511 168.2
125.4814 168.2
125.5109 168.2
125.5406 168.2
125.574 168.2
125.6046 168.2
125.6363 168.2
125.6643 168.2
125.6936 168.2
125.7269 168.2
125.7543 168.2
125.7842 168.2
125.8176 168.2
125.8509 168.2
125.8812 168.2
125.9145 168.2
125.9438 168.2
125.9741 168.2
126.0034 168.2
126.0313 168.2
126.0646 168.2
126.0948 168.2
126.1226 168.2
126.1531 168.2
126.1864 168.2
126.2151 168.2
126.2484 168.2
126.2798 168.2
126.3131 168.2
126.3425 168.2
126.3758 168.2
126.4077 168.2
126.4378 168.2
126.4707 168.2
126.499 168.2
126.5292 168.2
126.5626 168.2
126.5906 168.2
126.623 168.2
126.6545 168.2
126.6832 168.2
126.7161 168.2
126.7445 168.2
126.7778 168.2
126.8111 168.2
126.8416 168.2
126.8745 168.2
126.9063 168.2
126.9377 168.2
126.9668 168.2
126.9986 168.2
127.0317 168.2
127.0629 168.2
127.0957 168.2
127.1238 168.2
127.1554 168.2
127.1856 168.2
127.217 168.2
127.2491 168.2
127.2781 168.2
127.3086 168.2
127.3377 168.2
127.3672 168.2
127.3957 168.2
127.4272 168.2
127.4606 168.2
127.4893 168.2
127.5172 168.2
127.5461 168.2
127.5751 168.2
127.6036 168.2
127.6344 168.2
127.6657 168.2
127.6941 168.2
127.7227 168.2
127.7523 168.2
127.7807 168.2
127.8092 168.2
127.8425 168.2
127.8726 168.2
127.9036 168.2
127.9346 168.2
127.964 168.2
127.9962 168.2
128.0258 168.2
128.0539 168.2
128.0836 168.2
128.115 168.2
128.1473 168.2
128.1806 168.2
128.2099 168.2
128.2382 168.2
128.2699 168.2
128.3033 168.2
128.3339 168.2
128.3643 168.2
128.3956 168.2
128.4247 168.2
128.4557 168.2
128.4874 168.2
128.5204 168.2
128.5538 168.2
128.582 168.2
128.6117 168.2
128.6411 168.2
128.6724 168.2
128.7016 168.2
128.7318 168.2
128.7609 168.2
128.7888 168.2
128.8182 168.2
128.8491 168.2
128.8777 168.2
128.9091 168.2
128.9424 168.2
128.9749 168.2
129.0079 168.2
129.0369 168.2
129.0663 168.2
129.0974 168.2
129.1263 168.2
129.1556 168.2
129.1858 168.2
129.2154 168.2
129.2449 168.2
129.2738 168.2
129.3072 168.2
129.3393 168.2
129.3685 168.2
129.4018 168.2
129.4332 168.2
129.4644 168.2
129.4977 168.2
129.5311 168.2
129.5598 168.2
129.5932 168.2
129.6218 168.2
129.6502 168.2
129.6789 168.2
129.7074 168.2
129.7407 168.2
129.7741 168.2
129.8016 168.2
129.8349 168.2
129.8662 168.2
129.8941 168.2
129.927 168.2
129.9568 168.2
129.9843 168.2
130.0148 168.2
130.0467 168.2
130.0789 168.2
130.1105 168.2
130.1406 168.2
130.174 168.2
130.2059 168.2
130.2364 168.2
130.2696 168.2
130.2988 168.2
130.3273 168.2
130.3602 168.2
130.3926 168.2
130.4224 168.2
130.4507 168.2
130.4835 168.2
130.5146 168.2
130.5479 168.2
130.5775 168.2
130.6065 168.2
130.6358 168.2
130.6656 168.2
130.6989 168.2
130.7271 168.2
130.7605 168.2
130.7933 168.2
130.821 168.2
130.8514 168.2
130.8831 168.2
130.9117 168.2
130.9418 168.2
130.975 168.2
131.0023 168.2
131.0356 168.2
131.0648 168.2
131.0954 168.2
131.1244 168.2
131.1539 168.2
131.1816 168.2
131.2131 168.2
131.2465 168.2
131.2759 168.2
131.3092 168.2
131.3377 168.2
131.3674 168.2
131.3987 168.2
131.431 168.2
131.4609 168.2
131.4917 168.2
131.521 168.2
131.5493 168.2
131.5786 168.2
131.6084 168.2
131.6362 168.2
131.6695 168.2
131.6991 168.2
131.7285 168.2
131.7584 168.2
131.7877 168.2
131.8148 168.2
131.8448 168.2
131.877 168.2
131.9104 168.2
131.9397 168.2
131.9699 168.2
132.0017 168.2
132.0334 168.2
132.0667 168.2
132.0945 168.2
132.1273 168.2
132.1607 168.2
132.19 168.2
132.2198 168.2
132.2489 168.2
132.2766 168.2
132.3082 168.2
132.3395 168.2
132.3707 168.2
132.4012 168.2
132.4297 168.2
132.461 168.2
132.49 168.2
132.5233 168.2
132.5512 168.2
132.5845 168.2
132.613 168.2
132.6428 168.2
132.6761 168.2
132.7092 168.2
132.7403 168.2
132.7716 168.2
132.8035 168.2
132.8331 168.2
132.8613 168.2
132.8905 168.2
132.919 168.2
132.9482 168.2
132.9815 168.2
133.0082 168.2
133.0416 168.2
133.0723 168.2
133.1056 168.2
133.1366 168.2
133.1657 168.2
133.199 168.2
133.2283 168.2
133.2602 168.2
133.2935 168.2
133.3223 168.2
133.3518 168.2
133.3811 168.2
133.4144 168.2
133.4446 168.2
133.4739 168.2
133.5058 168.2
133.5363 168.2
133.5676 168.2
133.6009 168.2
133.6304 168.2
133.6613 168.2
133.6911 168.2
133.7245 168.2
133.7552 168.2
133.7834 168.2
133.8125 168.2
133.8408 168.2
133.8705 168.2
133.9039 168.2
133.9332 168.2
133.9624 168.2
133.9915 168.2
134.0231 168.2
134.0539 168.2
134.0829 168.2
134.1162 168.2
134.1453 168.2
134.1775 168.2
134.2069 168.2
134.2402 168.2
134.271 168.2
134.3011 168.2
134.3336 168.2
134.3654 168.2
134.3951 168.2
134.4242 168.2
134.4546 168.2
134.4825 168.2
134.5158 168.2
134.544 168.2
134.5716 168.2
134.6008 168.2
134.6342 168.2
134.6627 168.2
134.6955 168.2
134.7257 168.2
134.7547 168.2
134.788 168.2
134.8163 168.2
134.8459 168.2
134.8778 168.2
134.9111 168.2
134.9445 168.2
134.9757 168.2
135.005 168.2
135.0343 168.2
135.0636 168.2
135.0927 168.2
135.1232 168.2
135.154 168.2
135.1838 168.2
135.2157 168.2
135.248 168.2
135.2794 168.2
135.3127 168.2
135.3426 168.2
135.3723 168.2
135.4005 168.2
135.4307 168.2
135.4608 168.2
135.4899 168.2
135.5199 168.2
135.5484 168.2
135.5811 168.2
135.6125 168.2
135.6408 168.2
135.6685 168.2
135.7009 168.2
135.7305 168.2
135.7581 168.2
135.7898 168.2
135.8189 168.2
135.8468 168.2
135.8801 168.2
135.9093 168.2
135.9418 168.2
135.9751 168.2
136.0038 168.2
136.0342 168.2
136.0649 168.2
136.0976 168.2
136.1252 168.2
136.1542 168.2
136.1853 168.2
136.2145 168.2
136.2479 168.2
136.2788 168.2
136.3064 168.2
136.3384 168.2
136.3712 168.2
136.3991 168.2
136.4288 168.2
136.4593 168.2
136.4887 168.2
136.517 168.2
136.5459 168.2
136.5792 168.2
136.6074 168.2
136.6407 168.2
136.6681 168.2
136.6963 168.2
136.7243 168.2
136.7526 168.2
136.7822 168.2
136.8125 168.2
136.8403 168.2
136.8735 168.2
136.9038 168.2
136.9371 168.2
136.9705 168.2
137.0038 168.2
137.0348 168.2
137.066 168.2
137.0953 168.2
137.1286 168.2
137.1605 168.2
137.1939 168.2
137.2223 168.2
137.2512 168.2
137.2797 168.2
137.308 168.2
137.3391 168.2
137.3724 168.2
137.4006 168.2
137.433 168.2
137.4616 168.2
137.4938 168.2
137.5269 168.2
137.5599 168.2
137.5932 168.2
137.6221 168.2
137.6508 168.2
137.6821 168.2
137.7154 168.2
137.744 168.2
137.7713 168.2
137.8046 168.2
137.8322 168.2
137.8625 168.2
137.8958 168.2
137.9242 168.2
137.9522 168.2
137.9851 168.2
138.0164 168.2
138.0458 168.2
138.0758 168.2
138.1069 168.2
138.1403 168.2
138.1714 168.2
138.2002 168.2
138.2325 168.2
138.2629 168.2
138.2929 168.2
138.321 168.2
138.3493 168.2
138.3777 168.2
138.4068 168.2
138.437 168.2
138.4697 168.2
138.4985 168.2
138.5269 168.2
138.5574 168.2
138.5863 168.2
138.6173 168.2
138.6485 168.2
138.6809 168.2
138.7142 168.2
138.7428 168.2
138.7706 168.2
138.8014 168.2
138.8312 168.2
138.8606 168.2
138.8915 168.2
138.922 168.2
138.9534 168.2
138.9867 168.2
139.0178 168.2
139.0464 168.2
139.0749 168.2
139.1047 168.2
139.1342 168.2
139.163 168.2
139.1955 168.2
139.2247 168.2
139.2557 168.2
139.2851 168.2
139.3133 168.2
139.3423 168.2
139.3756 168.2
139.405 168.2
139.4342 168.2
139.4639 168.2
139.493 168.2
139.525 168.2
139.5582 168.2
139.5883 168.2
139.6174 168.2
139.6463 168.2
139.6789 168.2
139.7084 168.2
139.7388 168.2
139.7684 168.2
139.7984 168.2
139.8277 168.2
139.8558 168.2
139.8862 168.2
139.9181 168.2
139.9461 168.2
139.9791 168.2
140.0081 168.2
140.0372 168.2
140.0661 168.2
140.0995 168.2
140.1328 168.2
140.1622 168.2
140.1928 168.2
140.2248 168.2
140.2552 168.2
140.2841 168.2
140.316 168.2
140.3449 168.2
140.3771 168.2
140.408 168.2
140.4383 168.2
140.4682 168.2
140.5 168.2
140.5325 168.2
140.5634 168.2
140.5925 168.2
140.6213 168.2
140.6546 168.2
140.6841 168.2
140.713 168.2
140.7426 168.2
140.7704 168.2
140.8008 168.2
140.8305 168.2
140.8595 168.2
140.8883 168.2
140.9175 168.2
140.9497 168.2
140.9811 168.2
141.0144 168.2
141.0428 168.2
141.073 168.2
141.1063 168.2
141.1369 168.2
141.1703 168.2
141.201 168.2
141.2293 168.2
141.2576 168.2
141.2865 168.2
141.3142 168.2
141.3433 168.2
141.3766 168.2
141.4056 168.2
141.4375 168.2
141.4661 168.2
141.4985 168.2
141.5319 168.2
141.5614 168.2
141.5932 168.2
141.623 168.2
141.6519 168.2
141.6807 168.2
141.7095 168.2
141.7391 168.2
141.7675 168.2
141.7965 168.2
141.8298 168.2
141.8578 168.2
141.8912 168.2
141.9245 168.2
141.9525 168.2
141.9807 168.2
142.0102 168.2
142.0393 168.2
142.0698 168.2
142.1 168.2
142.1324 168.2
142.1642 167.95
142.1959 167.95
142.2292 167.5
142.2591 166.65
142.2879 166.65
142.3191 165.35
142.348 165.35
142.376 164.45
142.4035 164.45
142.4328 162.5
142.4628 160.3
142.4912 160.3
142.5246 157.5
142.5532 157.5
142.582 152.9
142.6112 146.75
142.6398 146.75
142.6679 139.55
142.6971 139.55
142.7287 133.25
142.7587 133.25
142.7887 125.8
142.8204 120.55
142.8537 120.55
142.8851 115.55
142.9164 109.85
142.9442 109.85
142.9745 105.25
143.0059 105.25
143.0349 102.2
143.0665 100.25
143.0982 100.25
143.1266 99.35
143.1599 98.5
143.1932 98.5
143.2231 98.3
143.256 98.3
143.2893 97.6
143.3226 97.4
143.353 97.4
143.3833 97.4
143.4167 97.4
143.4456 97.4
143.4741 97.4
143.5075 97.4
143.5369 97.4
143.5703 97.4
143.5996 97.4
143.6289 97.4
143.6581 97.4
143.6881 97.4
143.7186 97.4
143.7519 97.4
143.7817 97.4
143.8109 97.4
143.8435 97.4
143.876 97.4
143.9081 97.4
143.9381 97.4
143.969 97.4
143.9998 97.4
144.0291 97.4
144.0591 97.4
144.0893 97.4
144.1201 97.4
144.1534 97.4
144.1826 97.4
144.213 97.4
144.2463 97.4
144.2797 97.4
144.309 97.4
144.3403 97.2
144.3711 97.2
144.4008 97.2
144.4342 97.2
144.4631 96.95
144.4923 96.95
144.5257 96.95
144.5551 96.75
144.5872 96.3
144.6147 96.3
144.6453 96.3
144.674 96.3
144.7027 96.1
144.736 95.85
144.7681 95.85
144.795 95.85
144.824 95.85
144.8555 95.85
144.8888 95.45
144.9186 95.45
144.9507 95.2
144.9812 95
145.0145 95
145.0437 95
145.0735 94.8
145.1068 94.8
145.1356 94.8
145.1638 94.8
145.1922 94.8
145.2225 94.8
145.2501 94.8
145.2801 94.15
145.3113 94.15
145.3447 93.25
145.3755 91.95
145.4089 91.95
145.4394 90.85
145.4727 89.3
145.5032 89.3
145.5366 87.8
145.5657 86.9
145.598 86.9
145.6274 86.5
145.6561 86.5
145.6894 86.5
145.7215 86.5
145.7515 86.5
145.7806 86.5
145.814 86.5
145.8451 86.5
145.8735 86.5
145.9035 86.5
145.9354 86.5
145.9655 86.5
145.9934 86.5
146.0267 86.5
146.06 86.25
146.0894 86.25
146.1228 84.75
146.1561 81.9
146.1868 81.9
146.216 77.5
146.2453 77.5
146.2727 72.05
146.306 67.7
146.3393 67.7
146.3663 62.9
146.397 62.9
146.4272 59.6
146.455 56.35
146.4883 56.35
146.5217 53.95
146.5503 52.6
146.5807 52.6
146.6113 51.55
146.6446 50.2
146.6751 50.2
146.7046 49.8
146.7337 49.8
146.7631 49.15
146.7937 47.4
146.8241 47.4
146.8574 44.1
146.8887 40.4
146.9186 40.4
146.9519 34.25
146.9852 29.25
147.0172 29.25
147.0473 25.3
147.0805 23.35
147.1115 23.35
147.1448 21.8
147.1739 21.8
147.2054 20.95
147.2374 20.75
147.2665 20.75
147.294 20.75
147.3273 20.75
147.3554 20.75
147.388 20.5
147.4174 20.5
147.4495 18.75
147.4804 16.35
147.5098 16.35
147.5403 12.65
147.5687 12.65
147.5989 8.95
147.6285 5.65
147.6591 5.65
147.6925 2.6
147.7215 2.6
147.7502 0.85
147.7836 0.65
147.8139 0.65
147.8423 0.65
147.8707 0.65
147.9002 0.65
147.9312 0.65
147.9643 0.65
147.9966 0.65
148.0243 0.65
148.0542 0.65
148.0832 0.65
148.1118 0.65
148.1442 0.65
148.1753 0.65
148.2037 0.65
148.233 0.65
148.2659 0.65
148.2954 0.65
148.3283 0.65
148.3586 0.65
148.39 0.4
148.4195 -0.65
148.4515 -0.65
148.4808 -2.15
148.5107 -2.15
148.5411 -3.05
148.57 -3.7
148.6034 -3.7
148.6328 -4.35
148.6649 -4.35
148.6971 -4.8
148.7273 -4.8
148.7569 -4.8
148.7902 -4.8
148.8187 -4.8
148.8475 -4.8
148.8808 -4.8
148.9103 -4.8
148.9415 -4.8
148.9728 -4.8
149.0019 -4.8
149.0352 -4.8
149.0673 -4.8
149.1006 -4.8
149.134 -4.8
149.1666 -4.8
149.1999 -4.8
149.2325 -4.8
149.2654 -4.8
149.2943 -4.8
149.3228 -4.8
149.3521 -4.8
149.3854 -4.8
149.4143 -4.8
149.4427 -4.8
149.4756 -4.8
149.5055 -4.8
149.5387 -4.8
149.5702 -4.8
149.6018 -4.8
149.6312 -4.8
149.6617 -4.8
149.6899 -4.8
149.7225 -4.8
149.7523 -4.8
149.7814 -4.8
149.8112 -4.8
149.8446 -4.8
149.8731 -4.8
149.9054 -4.8
149.9348 -4.8
149.9673 -5
149.9969 -5
150.0261 -5.85
150.0538 -5.85
150.085 -6.75
150.118 -7.4
150.1494 -7.4
150.1827 -7.6
150.216 -7.85
150.2494 -7.85
150.278 -7.85
150.3071 -7.85
150.336 -7.85
150.3651 -7.85
150.395 -7.85
150.4241 -7.85
150.4552 -7.4
150.4859 -7.4
150.5192 -7.4
150.5483 -7.4
150.5775 -7.4
150.6079 -7.4
150.6381 -7.4
150.6696 -7.4
150.6983 -7.2
150.7316 -7.2
150.765 -6.3
150.7942 -5.2
150.825 -5.2
150.8583 -4.15
150.887 -2.8
150.9203 -2.8
150.95 -2.6
150.9783 -2.6
151.0091 -2.8
151.038 -3.05
151.0673 -3.05
151.0982 -3.05
151.1273 -3.05
151.1572 -2.8
151.1906 -2.6
151.2207 -2.6
151.2513 -1.95
151.2828 -1.05
151.3118 -1.05
151.3398 -0.4
151.3701 -0.4
151.3997 0.4
151.4303 0.85
151.4594 0.85
151.4928 0.85
151.5203 0.85
151.5511 0.85
151.581 0.85
151.6099 0.85
151.642 0.85
151.6716 0.85
151.7017 0.65
151.7312 0.4
151.7619 0.4
151.7937 0.4
151.827 0.4
151.8603 0.4
151.8921 1.3
151.9246 2.15
151.9556 2.15
151.9837 3.7
152.013 3.7
152.0427 4.55
152.0712 5.65
152.1031 5.65
152.1319 6.1
152.1632 6.1
152.1923 6.3
152.2238 6.3
152.2572 6.3
152.2886 6.3
152.3177 6.3
152.3471 6.3
152.3784 6.3
152.4107 6.3
152.4404 6.55
152.4698 6.75
152.5025 6.75
152.534 6.95
152.564 6.95
152.5942 6.95
152.6275 6.95
152.6559 6.95
152.686 6.95
152.7193 6.95
152.75 6.95
152.7787 6.95
152.8069 6.95
152.8398 6.95
152.8731 6.95
152.9013 6.95
152.9319 6.95
152.9651 6.95
152.9954 6.95
153.0257 6.95
153.059 6.95
153.0869 6.95
153.1203 6.95
153.1536 6.95
153.1822 6.95
153.2122 6.95
153.2406 6.95
153.2683 6.95
153.3017 6.95
153.335 6.95
153.3671 6.95
153.3967 6.95
153.4299 6.95
153.4603 6.95
153.4901 6.95
153.519 6.95
153.5479 6.95
153.5804 6.95
153.6103 6.95
153.6389 6.95
153.6694 6.95
153.7025 6.95
153.7342 6.95
153.7675 6.95
153.7988 6.95
153.8292 6.95
153.8595 6.95
153.8891 6.95
153.9225 6.95
153.9539 6.95
153.9859 6.95
154.0145 6.95
154.0452 6.95
154.0785 6.95
154.1096 6.95
154.1429 6.95
154.172 6.95
154.2004 6.95
154.2313 6.95
154.2624 6.95
154.2903 6.95
154.3207 6.95
154.352 6.95
154.3802 6.95
154.4126 6.95
154.4459 6.95
154.4746 6.95
154.5058 6.95
154.5391 6.95
154.5685 6.95
154.6018 6.95
154.6351 6.95
154.6642 6.95
154.6971 6.95
154.7261 6.95
154.7595 7.2
154.7928 7.4
154.8261 7.4
154.8553 7.85
154.8845 7.85
154.9147 8.05
154.9481 8.05
154.9814 8.05
155.0116 8.05
155.0417 8.05
155.075 8.05
155.1059 8.05
155.1392 8.05
155.1675 8.05
155.1985 8.05
155.2281 8.05
155.2587 8.05
155.2874 8.05
155.3164 8.05
155.3473 8.05
155.3758 8.05
155.4091 8.05
155.4425 8.05
155.4725 8.05
155.5007 8.05
155.5302 8.05
155.5596 8.05
155.589 8.05
155.6223 8.05
155.6517 8.05
155.6815 8.05
155.7133 8.05
155.7419 8.05
155.7735 8.05
155.8036 8.05
155.8328 8.05
155.8609 8.05
155.8939 8.05
155.9232 8.05
155.9552 8.05
155.9886 8.05
156.0217 8.05
156.0498 8.05
156.0831 8.05
156.1118 8.05
156.1451 8.05
156.1757 8.05
156.2053 8.05
156.2332 8.05
156.2627 8.05
156.291 8.05
156.3199 8.05
156.3503 8.05
156.3836 8.05
156.4169 8.05
156.4459 8.05
156.4754 8.05
156.5055 8.05
156.5353 8.05
156.5687 8.05
156.6014 8.05
156.6337 8.05
156.6624 8.05
156.691 8.05
156.7244 8.05
156.7577 8.05
156.7889 8.05
156.819 8.05
156.8496 8.05
156.877 8.05
156.9104 8.05
156.9413 8.05
156.9743 8.05
157.0076 8.05
157.0361 8.05
157.064 8.05
157.0933 8.05
157.1234 8.05
157.1554 8.05
157.1878 8.05
157.2184 8.05
157.2477 8.05
157.281 8.05
157.3111 8.05
157.3443 8.05
157.3732 8.05
157.4033 8.05
157.4345 8.05
157.4653 8.05
157.4948 8.05
157.5233 8.05
157.5555 8.05
157.5888 8.05
157.6171 8.05
157.6472 8.05
157.6805 8.05
157.7088 8.05
157.7392 8.05
157.7697 8.05
157.7986 8.05
157.8288 8.05
157.8622 8.05
157.8905 8.05
157.9194 8.05
157.952 8.05
157.9853 8.05
158.0148 8.05
158.0481 8.05
158.076 8.05
158.1081 8.05
158.1404 8.05
158.1732 8.05
158.2066 8.05
158.2374 8.05
158.2688 8.05
158.3016 8.05
158.335 8.05
158.3627 8.05
158.3934 8.05
158.4215 8.05
158.4507 8.05
158.4802 8.05
158.5136 8.05
158.543 8.05
158.5731 8.05
158.6064 8.05
158.6398 8.05
158.6701 8.05
158.7035 8.05
158.7368 8.05
158.7675 8.05
158.7976 8.05
158.826 8.05
158.8578 8.05
158.8911 8.05
158.9234 8.05
158.9548 8.05
158.9859 8.05
159.0178 8.05
159.0468 8.05
159.0791 8.05
159.1073 8.05
159.1371 8.05
159.17 8.05
159.2033 8.05
159.2346 8.05
159.2679 8.05
159.3002 8.05
159.3306 8.05
159.3596 8.05
159.3902 8.05
159.4184 8.05
159.4517 8.05
159.485 8.05
159.5137 8.05
159.5437 8.05
159.5725 8.05
159.6038 8.05
159.6332 8.05
159.6666 8.05
159.6965 8.05
159.7298 8.05
159.7629 8.05
159.7963 8.05
159.8296 8.05
159.8584 8.05
159.8877 8.05
159.921 8.05
159.9501 8.05
159.9834 8.05
160.0167 8.05
160.0443 8.05
160.0729 8.05
160.104 8.05
160.1317 8.05
160.1649 8.05
160.1965 8.05
160.2242 8.05
160.2556 8.05
160.2852 8.05
160.3186 8.05
160.3508 8.05
160.3841 8.05
160.4129 8.05
160.4462 8.05
160.4793 8.05
160.5069 8.05
160.538 8.05
160.5667 8.05
160.597 8.05
160.6271 8.05
160.6562 8.05
160.6857 8.05
160.7187 8.05
160.7508 8.05
160.7799 8.05
160.8133 8.05
160.8452 8.05
160.8762 8.05
160.9055 8.05
160.9349 8.05
160.9663 8.05
160.9953 8.05
161.0275 8.05
161.0571 8.05
161.0883 8.05
161.1173 8.05
161.1493 8.05
161.1795 8.05
161.2128 8.3
161.2426 8.3
161.2733 8.95
161.3028 8.95
161.3332 9.6
161.3666 10
161.3987 10
161.429 10.9
161.4591 11.35
161.4884 11.35
161.5217 12
161.5522 12
161.5841 12.45
161.6172 12.85
161.6469 12.85
161.6764 13.3
161.7047 13.75
161.7342 13.75
161.7636 13.95
161.7964 13.95
161.8252 14.4
161.8585 14.85
161.8873 14.85
161.9158 15.5
161.9492 16.15
161.9825 16.15
162.0127 16.6
162.0451 16.8
162.0741 16.8
162.1074 16.8
162.1382 16.8
162.1688 16.8
162.1981 16.8
162.2266 16.8
162.2546 16.8
162.2863 16.8
162.315 16.8
162.3438 16.8
162.3745 16.8
162.4079 16.8
162.4359 16.8
162.4689 16.8
162.5022 16.8
162.5318 16.8
162.561 16.8
162.5902 16.8
162.6228 16.8
162.6522 16.8
162.6852 16.8
162.7178 16.8
162.7501 16.8
162.7804 16.8
162.8089 16.8
162.8403 16.8
162.8691 16.8
162.9025 16.8
162.9358 16.8
162.9691 16.8
162.9972 16.8
163.0268 16.6
163.0564 16.6
163.0859 15.9
163.1177 15.9
163.1465 15.25
163.1761 14.15
163.2054 14.15
163.2352 13.1
163.264 13.1
163.2951 12
163.3284 11.1
163.3595 11.1
163.3928 10.25
163.4226 9.8
163.4518 9.8
163.4845 9.15
163.5175 9.15
163.5469 8.7
163.5784 8.05
163.6079 8.05
163.6413 6.95
163.6703 5.45
163.7008 5.45
163.7322 4.15
163.7656 4.15
163.7989 2.6
163.827 1.3
163.856 1.3
163.8856 0.65
163.9189 -0.85
163.951 -0.85
163.9828 -1.95
164.0141 -1.95
164.0452 -3.05
164.0747 -4.15
164.1041 -4.15
164.1353 -5.2
164.1648 -6.1
164.1982 -6.1
164.2267 -6.55
164.2592 -6.55
164.2898 -6.75
164.3202 -6.75
164.3499 -6.75
164.3786 -6.75
164.4075 -6.75
164.4372 -7.2
164.4667 -7.85
164.4999 -7.85
164.5309 -8.5
164.561 -8.5
164.5943 -8.95
164.6277 -9.15
164.656 -9.15
164.6893 -9.35
164.7209 -10
164.7536 -10
164.784 -10.9
164.8132 -11.1
164.8448 -11.1
164.8745 -11.1
164.9063 -10.7
164.935 -10.7
164.964 -10
164.9932 -10
165.0227 -9.6
165.052 -9.6
165.0829 -9.15
165.1121 -8.95
165.1426 -8.95
165.176 -8.95
165.2053 -8.95
165.2351 -8.95
165.2684 -8.95
165.2967 -8.95
165.33 -8.7
165.3589 -8.5
165.3892 -8.5
165.4174 -8.05
165.4459 -8.05
165.4749 -7.6
165.504 -7.2
165.5373 -7.2
165.5664 -6.95
165.5992 -6.95
165.629 -6.95
165.6604 -6.95
165.6903 -6.95
165.7201 -6.75
165.7534 -6.75
165.7841 -6.75
165.814 -6.3
165.8418 -5.85
165.8752 -5.85
165.905 -5
165.938 -5
165.9713 -4.35
166.0019 -3.25
166.0338 -3.25
166.0637 -2.6
166.0926 -1.5
166.1259 -1.5
166.1593 -0.85
166.189 -0.2
166.2182 -0.2
166.2515 0.65
166.2841 1.3
166.3118 1.3
166.3416 2.15
166.3706 2.15
166.4 2.6
166.4333 3.25
166.4638 3.25
166.4914 3.45
166.5207 3.45
166.554 3.7
166.5853 3.7
166.6187 3.7
166.652 3.7
166.6828 3.7
166.7161 3.7
166.7477 3.7
166.7811 3.7
166.8144 3.7
166.847 3.7
166.8748 3.7
166.9043 3.7
166.9375 3.7
166.9668 3.7
166.9954 3.45
167.0248 3.45
167.0581 3.25
167.0868 3.05
167.1165 3.05
167.1465 2.8
167.1763 2.8
167.207 2.8
167.2382 2.6
167.2676 2.6
167.2996 2.6
167.3285 2.6
167.3616 2.6
167.3919 2.6
167.4213 2.6
167.4521 2.6
167.4844 2.6
167.5136 2.6
167.5444 2.6
167.5759 2.6
167.6033 2.6
167.6365 2.6
167.6669 2.6
167.6961 2.6
167.7265 2.6
167.7599 2.6
167.7888 2.6
167.8197 2.6
167.8496 2.6
167.8782 2.6
167.9115 2.6
167.9431 2.6
167.9709 2.6
168.0004 2.6
168.029 2.6
168.0566 2.6
168.0867 2.6
168.1169 2.6
168.1463 2.6
168.1796 2.6
168.2116 2.6
168.2387 2.6
168.2678 2.6
168.2997 2.6
168.3273 2.6
168.3581 2.6
168.3913 2.4
168.4217 1.95
168.452 1.95
168.4854 1.95
168.5153 1.95
168.5446 1.95
168.5748 1.95
168.603 1.95
168.6334 1.95
168.6667 1.95
168.6945 1.95
168.7233 1.95
168.7567 1.95
168.7862 1.95
168.8162 1.95
168.8456 1.95
168.8739 1.95
168.9024 1.95
168.9357 1.95
168.9636 1.95
168.9931 1.95
169.024 1.95
169.0536 1.95
169.0819 1.95
169.1118 1.95
169.1419 1.95
169.1728 1.95
169.2017 1.95
169.2295 1.95
169.2595 1.95
169.2929 1.95
169.32 1.95
169.3501 1.95
169.3835 1.95
169.4132 1.95
169.4465 1.95
169.4767 1.95
169.5058 1.95
169.5391 1.95
169.5688 1.95
169.5964 1.95
169.6293 1.95
169.6595 1.95
169.6876 1.95
169.7209 1.95
169.7543 1.95
169.7824 1.95
169.8115 1.95
169.8436 1.95
169.8711 1.95
169.9005 1.95
169.9313 1.95
169.9615 1.95
169.9942 1.95
170.0274 1.95
170.0607 1.95
170.0911 1.95
170.1224 1.95
170.1526 1.95
170.1812 1.95
170.2095 1.95
170.2371 1.95
170.2672 1.95
170.2959 1.95
170.325 1.95
170.3577 1.95
170.3893 1.95
170.4174 1.95
170.4483 1.95
170.4804 1.95
170.5082 1.95
170.5367 1.95
170.5667 1.95
170.5993 1.95
170.6326 1.95
170.6628 1.95
170.6934 1.95
170.7248 1.95
170.7536 1.95
170.787 1.95
170.8167 1.95
170.85 1.95
170.8777 1.95
170.9111 1.95
170.9404 1.95
170.9733 1.95
171.0067 1.95
171.0374 1.95
171.069 1.95
171.0975 1.95
171.1266 1.95
171.1571 2.15
171.1904 2.15
171.2237 2.15
171.252 2.15
171.2812 2.15
171.3106 2.15
171.3396 2.15
171.373 2.15
171.4033 2.15
171.433 2.15
171.4639 2.15
171.4938 2.4
171.5217 2.4
171.555 2.6
171.5882 2.8
171.6216 3.25
171.6502 3.25
171.6822 3.25
171.7124 3.25
171.7449 3.25
171.7759 3.25
171.8092 3.25
171.8387 3.45
171.872 3.9
171.9044 3.9
171.9356 4.35
171.9648 5
171.9937 5
172.0264 5.85
172.0578 6.75
172.086 6.75
172.1154 7.6
172.1485 7.6
172.1806 8.95
172.214 10.45
172.2473 10.45
172.2756 12
172.3065 13.3
172.3381 13.3
172.3681 14.4
172.397 14.4
172.4292 15.25
172.4572 17.25
172.4905 17.25
172.5217 18.55
172.555 19.85
172.5884 19.85
172.6217 21.8
172.6516 23.35
172.6816 23.35
172.7137 25.3
172.7454 25.3
172.7784 27.5
172.8069 29.9
172.8376 29.9
172.871 32.1
172.902 34.7
172.932 34.7
172.9612 36.9
172.9911 36.9
173.0202 39.5
173.0488 39.5
173.0821 42.15
173.1119 44.55
173.1404 44.55
173.1707 46.7
173.204 48.45
173.2346 48.45
173.2641 51.55
173.296 53.3
173.3243 53.3
173.3561 55.45
173.3878 55.45
173.4178 57.45
173.4469 59.15
173.4753 59.15
173.5048 60.9
173.5382 60.9
173.567 62.25
173.5969 62.9
173.6274 62.9
173.6607 63.75
173.6935 64.4
173.7246 64.4
173.7524 64.85
173.7812 64.85
173.8108 65.5
173.8419 65.75
173.8752 65.75
173.9057 65.95
173.936 65.95
173.9648 66.4
173.9981 66.6
174.0273 66.6
174.0568 67.05
174.0861 67.25
174.1181 67.25
174.1472 67.7
174.1776 67.7
174.2056 68.15
174.2389 68.55
174.2682 68.55
174.301 68.8
174.3316 68.8
174.3649 68.8
174.393 68.8
174.4215 68.8
174.4528 68.8
174.4815 68.8
174.5148 68.8
174.5446 68.8
174.5779 68.8
174.6109 68.8
174.6425 68.8
174.6752 68.55
174.7068 68.55
174.7356 67.9
174.7669 67.9
174.7956 67.05
174.8256 65.5
174.8549 65.5
174.8882 64.4
174.9212 64.4
174.9545 63.1
174.9877 61.8
175.0164 61.8
175.0446 60.25
175.0749 58.3
175.1061 58.3
175.135 57
175.1643 57
175.1955 54.35
175.2238 52.85
175.2571 52.85
175.2867 52.2
175.319 51.95
175.3503 51.95
175.3836 51.95
175.4149 51.95
175.4454 51.95
175.4764 51.95
175.5046 51.95
175.538 51.95
175.5663 51.95
175.595 51.95
175.6284 51.95
175.6613 51.95
175.6947 51.95
175.728 51.55
175.7613 50.65
175.792 50.65
175.8233 49.8
175.8566 48.9
175.885 48.9
175.9162 47.8
175.9448 47.8
175.9759 47.15
176.0054 47.15
176.0377 46.95
176.0702 46.95
176.101 46.95
176.134 46.95
176.1672 46.95
176.1988 46.95
176.2315 46.95
176.2595 46.95
176.2889 46.95
176.3214 46.95
176.3491 46.95
176.3824 46.95
176.4128 47.15
176.442 47.15
176.4743 47.15
176.5076 47.15
176.5368 47.15
176.5671 47.15
176.5971 47.15
176.63 47.15
176.6605 46.95
176.6896 46.95
176.7184 46.3
176.7499 46.3
176.78 45.4
176.8094 44.3
176.8407 44.3
176.8696 43.65
176.9029 43.65
176.933 42.35
176.9636 40.8
176.9951 40.8
177.0259 39.3
177.0592 38
177.0871 38
177.1178 36.25
177.149 36.25
177.1818 34.7
177.2126 33.2
177.2433 33.2
177.2766 32.3
177.3071 32.3
177.3365 31.2
177.3645 30.35
177.3978 30.35
177.4286 29.9
177.4619 29.45
177.4905 29.45
177.5195 29.45
177.55 29.45
177.5793 29.25
177.6089 28.8
177.639 28.8
177.6723 28.15
177.7057 27.3
177.7381 27.3
177.7715 26.4
177.8018 24.9
177.8303 24.9
177.8636 23.35
177.896 22.05
177.9293 22.05
177.9581 20.3
177.9903 20.3
178.0214 19
178.051 17
178.08 17
178.1074 14.85
178.1388 14.85
178.1721 12.85
178.2055 11.35
178.2351 11.35
178.2677 9.35
178.2964 7.85
178.3281 7.85
178.356 6.75
178.3857 6.75
178.4191 5.85
178.4501 5.45
178.4801 5.45
178.5093 5.2
178.5422 5.2
178.5708 5
178.6005 4.55
178.6339 4.55
178.6618 4.55
178.6917 4.55
178.7212 4.55
178.7509 4.55
178.7801 4.55
178.8134 4.55
178.8468 4.55
178.8801 4.55
178.9088 4.15
178.9416 3.7
178.9709 3.7
179 2.8
179.0276 2.8
179.0609 1.7
179.0893 0.85
179.1176 0.85
179.1467 -0.4
179.1774 -0.4
179.2062 -1.05
179.2365 -1.3
179.2662 -1.3
179.2978 -1.3
179.3278 -1.3
179.3567 -1.3
179.3878 -1.5
179.4187 -1.5
179.4483 -1.7
179.4767 -1.7
179.51 -2.15
179.5411 -2.6
179.5744 -2.6
179.6031 -2.8
179.6365 -3.05
179.6648 -3.05
179.6957 -3.45
179.726 -3.45
179.7534 -3.7
179.7864 -4.15
179.8197 -4.15
179.8491 -4.8
179.8791 -5
179.9109 -5
179.9384 -5.2
179.9665 -5.2
179.9983 -5.2
180.0295 -5.2
180.0623 -5.2
180.091 -5.2
180.1207 -5.2
180.1513 -5.2
180.1812 -5.2
180.21 -5.2
180.2382 -5.2
180.2668 -5.2
180.2945 -5.2
180.3238 -5.2
180.3564 -5.2
180.3847 -5.2
180.416 -5.2
180.4493 -5.2
180.4789 -5.2
180.5099 -5.2
180.5398 -5.2
180.5671 -5.2
180.5972 -5.2
180.6302 -5.2
180.6582 -5.2
180.6877 -5.2
180.7178 -5.2
180.7459 -5.2
180.7774 -5.2
180.8083 -5.2
180.8372 -5.2
180.8699 -5.2
180.9032 -5.2
180.9329 -5.2
180.9616 -5.2
180.9907 -5
181.0201 -5
181.0502 -4.55
181.0822 -3.9
181.1155 -3.9
181.1455 -2.8
181.1788 -2.15
181.2065 -2.15
181.2397 -0.85
181.27 0
181.3007 0
181.33 0.4
181.3611 0.4
181.394 0.65
181.4254 0.65
181.4587 0.65
181.4876 0.65
181.5169 0.65
181.5502 0.2
181.5789 -0.85
181.6091 -0.85
181.6387 -1.95
181.667 -3.7
181.7004 -3.7
181.7328 -4.55
181.7604 -4.55
181.7899 -6.55
181.8232 -7.6
181.8527 -7.6
181.886 -8.7
181.9194 -10.25
181.9519 -10.25
181.9852 -11.1
182.016 -12.2
182.0447 -12.2
182.0754 -13.3
182.1084 -14.4
182.1417 -14.4
182.1707 -15.5
182.1992 -15.5
182.2325 -16.8
182.2615 -18.3
182.2907 -18.3
182.3179 -20.3
182.3481 -20.3
182.3774 -21.8
182.4064 -23.35
182.4358 -23.35
182.4641 -25.1
182.4919 -25.1
182.5249 -26.65
182.5582 -27.7
182.5903 -27.7
182.6224 -29.25
182.6539 -30.55
182.6839 -30.55
182.7133 -31.65
182.7447 -31.65
182.7772 -32.75
182.8068 -33.85
182.8356 -33.85
182.8666 -34.7
182.8971 -34.7
182.9301 -35.8
182.9592 -36.45
182.9902 -36.45
183.0225 -36.9
183.0558 -37.55
183.087 -37.55
183.1166 -37.75
183.1489 -37.75
183.1774 -38
183.2108 -38.2
183.2388 -38.2
183.2677 -38.2
183.2964 -38.2
183.3275 -38.2
183.3583 -38.2
183.3883 -38.2
183.4178 -38.2
183.446 -38.2
183.478 -38.2
183.5101 -38.2
183.5396 -38.2
183.5699 -38.2
183.5985 -38.2
183.6273 -38.2
183.6603 -38.2
183.6898 -38.2
183.7217 -38.2
183.7516 -38
183.7811 -38
183.8135 -37.35
183.8468 -36.45
183.8748 -36.45
183.9059 -35.35
183.9393 -35.35
183.9664 -34.5
183.9958 -33.4
184.0291 -33.4
184.0581 -32.3
184.0915 -31.65
184.1225 -31.65
184.1559 -31
184.1853 -29.9
184.2153 -29.9
184.2429 -29.25
184.2716 -29.25
184.3022 -28.6
184.3335 -27.95
184.3629 -27.95
184.3921 -27.3
184.4197 -27.3
184.4531 -26.85
184.4825 -25.95
184.5113 -25.95
184.5432 -25.1
184.5723 -25.1
184.6056 -24
184.6357 -23.35
184.6655 -23.35
184.6974 -22.05
184.728 -20.5
184.759 -20.5
184.7914 -18.55
184.8237 -18.55
184.8566 -16.8
184.8844 -14.85
184.9131 -14.85
184.9465 -13.3
184.977 -11.55
185.0086 -11.55
185.0411 -10
185.0703 -10
185.0997 -9.15
185.1297 -8.7
185.1575 -8.7
185.1868 -8.5
185.2202 -8.5
185.2535 -8.5
185.2826 -8.5
185.3121 -8.5
185.3413 -8.5
185.3736 -8.5
185.407 -8.5
185.4403 -8.5
185.4689 -8.5
185.4972 -8.5
185.526 -8.7
185.5566 -8.7
185.5851 -9.15
185.6132 -10.25
185.6465 -10.25
185.6799 -11.55
185.7091 -12.85
185.7411 -12.85
185.7702 -14.4
185.799 -14.4
185.8311 -15.9
185.8645 -17.25
185.8927 -17.25
185.9214 -18.55
185.95 -18.55
185.9786 -20.05
186.0074 -21.6
186.0396 -21.6
186.0677 -22.5
186.0994 -22.5
186.1322 -24
186.1647 -25.3
186.1935 -25.3
186.224 -26.4
186.2538 -26.4
186.2871 -28.35
186.3204 -30.1
186.349 -30.1
186.3785 -31.2
186.4084 -32.75
186.441 -32.75
186.4698 -34.05
186.5009 -35.15
186.5293 -35.15
186.5585 -36.25
186.5907 -36.25
186.6208 -37.35
186.6521 -38.4
186.6854 -38.4
186.7151 -39.5
186.7433 -39.5
186.7739 -40.4
186.8021 -41.25
186.833 -41.25
186.8642 -41.9
186.8925 -41.9
186.9236 -42.15
186.9525 -42.55
186.9802 -42.55
187.0097 -42.55
187.0415 -42.55
187.0697 -42.55
187.1028 -42.55
187.1344 -42.55
187.166 -42.55
187.1948 -42.55
187.2279 -42.55
187.2559 -42.55
187.2892 -42.55
187.3225 -42.55
187.35 -42.55
187.3784 -42.55
187.407 -42.35
187.436 -42.35
187.4693 -41.5
187.4998 -40.4
187.5287 -40.4
187.5606 -38.65
187.5927 -36.9
187.6234 -36.9
187.6531 -35.15
187.6864 -35.15
187.715 -33.4
187.7452 -31.45
187.7779 -31.45
187.8096 -29.25
187.8378 -29.25
187.8711 -26.2
187.9002 -23.35
187.9291 -23.35
187.9621 -20.95
187.9898 -17.9
188.0185 -17.9
188.0488 -15.5
188.0774 -15.5
188.1094 -13.1
188.1427 -10.25
188.1734 -10.25
188.2032 -7.4
188.2366 -3.45
188.2692 -3.45
188.2984 -1.3
188.3297 1.3
188.3587 1.3
188.3871 3.25
188.4168 3.25
188.4444 5
188.4778 5
188.5111 7.2
188.5394 8.7
188.5719 8.7
188.6006 11.35
188.6291 13.1
188.6602 13.1
188.6927 14.15
188.726 14.6
188.7553 14.6
188.7839 15.25
188.8129 15.25
188.8446 15.7
188.8751 15.9
188.9056 15.9
188.9371 16.15
188.9704 16.35
188.9986 16.35
189.032 16.6
189.0653 16.6
189.0938 16.8
189.1271 16.8
189.157 16.8
189.1853 16.8
189.215 16.8
189.2483 16.8
189.2762 16.15
189.3092 16.15
189.3391 15.25
189.3689 14.15
189.3996 14.15
189.4329 11.55
189.4663 8.95
189.4996 8.95
189.5294 4.55
189.5603 -0.2
189.5937 -0.2
189.627 -4.15
189.6584 -8.95
189.6905 -8.95
189.7231 -12.2
189.7524 -12.2
189.7822 -15.7
189.8129 -17.9
189.8409 -17.9
189.8694 -19.85
189.9008 -19.85
189.9311 -22.25
189.9645 -23.8
189.9919 -23.8
190.0196 -25.75
190.0529 -27.7
190.0839 -27.7
190.1127 -29.05
190.1434 -29.05
190.1768 -30.55
190.2046 -31.65
190.2338 -31.65
190.2636 -32.3
190.2969 -32.5
190.3263 -32.5
190.3596 -32.75
190.3892 -32.75
190.418 -33.6
190.4513 -34.7
190.481 -34.7
190.5095 -36.45
190.5377 -36.45
190.5676 -38.65
190.5981 -40.8
190.6279 -40.8
190.6603 -43.45
190.6918 -45.4
190.7238 -45.4
190.7564 -46.7
190.7844 -46.7
190.8129 -48.05
190.8409 -49.35
190.8701 -49.35
190.9026 -50.45
190.9316 -50.45
190.9634 -51.75
190.9967 -52.6
191.0261 -52.6
191.0595 -52.85
191.0894 -52.85
191.1227 -52.85
191.154 -52.85
191.1837 -52.85
191.2121 -52.85
191.2412 -52.85
191.2709 -52.85
191.3023 -52.85
191.3316 -53.3
191.3608 -53.3
191.3941 -53.95
191.4261 -53.95
191.4585 -54.8
191.4907 -55.45
191.5201 -55.45
191.5493 -56.55
191.5803 -57.45
191.6136 -57.45
191.6456 -57.85
191.6761 -57.85
191.7095 -58.3
191.7396 -58.5
191.7691 -58.5
191.7984 -58.5
191.827 -58.5
191.8555 -58.5
191.8849 -58.5
191.9144 -58.5
191.9465 -58.5
191.9765 -58.5
192.0097 -58.5
192.0414 -58.3
192.0721 -58.3
192.1013 -58.1
192.1296 -57.85
192.1629 -57.85
192.1914 -57.85
192.2203 -57.85
192.2512 -57.85
192.2846 -58.1
192.3137 -58.1
192.3447 -58.3
192.3741 -58.75
192.4026 -58.75
192.4359 -58.95
192.4678 -59.15
192.4954 -59.15
192.5238 -59.4
192.5548 -59.4
192.5836 -59.4
192.6132 -59.4
192.6465 -59.4
192.6787 -59.4
192.7071 -59.4
192.739 -59.4
192.7677 -59.4
192.798 -59.4
192.8313 -59.4
192.8603 -59.4
192.8937 -59.4
192.927 -59.4
192.9555 -59.4
192.984 -59.4
193.0158 -59.4
193.0437 -59.4
193.0741 -59.4
193.1042 -59.4
193.1327 -59.4
193.1625 -59.4
193.1958 -59.4
193.2241 -59.4
193.2572 -59.4
193.2867 -59.4
193.315 -59.4
193.3441 -59.4
193.3729 -59.4
193.4058 -59.4
193.4351 -59.4
193.4685 -59.4
193.4971 -59.4
193.5263 -59.4
193.5568 -59.4
193.5874 -59.4
193.6164 -59.4
193.6455 -59.4
193.6788 -59.4
193.7076 -59.4
193.7367 -59.4
193.7675 -59.4
193.7966 -59.4
193.83 -59.4
193.8592 -59.4
193.8897 -59.4
193.9195 -59.4
193.9513 -59.4
193.9837 -59.4
194.017 -59.4
194.0453 -59.4
194.0764 -59.4
194.1075 -59.4
194.1349 -59.4
194.1643 -59.4
194.194 -59.4
194.2273 -59.4
194.2606 -59.4
194.2899 -59.4
194.3193 -59.4
194.3526 -59.4
194.3846 -59.4
194.4179 -59.4
194.4464 -59.4
194.4772 -59.4
194.5083 -59.4
194.5417 -59.4
194.5706 -59.4
194.599 -59.4
194.6313 -59.4
194.6647 -59.4
194.694 -59.4
194.7224 -59.4
194.7548 -59.4
194.7881 -59.4
194.8192 -59.4
194.849 -59.4
194.8775 -59.4
194.9079 -59.4
194.9406 -59.4
194.9687 -59.4
194.9971 -59.4
195.0257 -59.4
195.0581 -59.4
195.0869 -59.4
195.1203 -59.4
195.1505 -59.4
195.181 -59.4
195.2098 -59.4
195.2388 -59.4
195.2676 -59.4
195.299 -59.4
195.3275 -59.4
195.3609 -59.4
195.3891 -59.4
195.4204 -59.4
195.4509 -59.4
195.481 -59.4
195.5139 -59.4
195.5434 -59.4
195.5723 -59.4
195.6018 -59.4
195.6352 -59.4
195.6685 -59.4
195.697 -59.4
195.7253 -59.4
195.756 -59.4
195.7855 -59.4
195.814 -59.4
195.8473 -59.4
195.8807 -59.4
195.914 -59.4
195.9473 -59.4
195.9777 -59.4
196.011 -59.4
196.0394 -59.4
196.0673 -59.4
196.0984 -59.4
196.1307 -59.4
196.1578 -59.4
196.1912 -59.4
196.2196 -59.4
196.2482 -59.4
196.2778 -59.4
196.3075 -59.4
196.3408 -59.4
196.3693 -59.4
196.3984 -59.4
196.4268 -59.4
196.459 -59.4
196.4922 -59.4
196.5232 -59.4
196.5519 -59.4
196.5853 -59.4
196.6186 -59.4
196.648 -59.4
196.6781 -59.4
196.7108 -59.4
196.7403 -59.4
196.7737 -59.4
196.8061 -59.4
196.8366 -59.4
196.8661 -59.4
196.8938 -59.4
196.9236 -59.4
196.9525 -59.4
196.9821 -59.4
197.0111 -59.4
197.0402 -59.4
197.0706 -59.85
197.1004 -59.85
197.1338 -60.05
197.1626 -60.9
197.1931 -60.9
197.2258 -61.6
197.2574 -61.6
197.2882 -62
197.3183 -62.45
197.3494 -62.45
197.3799 -62.45
197.4102 -62.45
197.4388 -62.45
197.4721 -62.45
197.5027 -62.45
197.5343 -62.45
197.5626 -62.45
197.5925 -62.45
197.6231 -62.45
197.6545 -62.45
197.684 -62.45
197.7152 -62.45
197.7451 -62.45
197.7745 -62.45
197.8046 -62.45
197.8379 -62.45
197.8671 -62.45
197.8956 -62.45
197.9279 -62.45
197.9568 -62.45
197.9864 -62.45
198.0162 -62.45
198.045 -62.45
198.0754 -62.25
198.1079 -61.8
198.1379 -61.8
198.168 -60.9
198.1984 -60.9
198.2289 -60.05
198.2575 -58.95
198.2883 -58.95
198.3217 -58.1
198.3499 -58.1
198.3832 -57.2
198.4166 -56.55
198.4445 -56.55
198.4737 -55.7
198.5053 -55
198.534 -55
198.5648 -54.6
198.593 -54.6
198.6221 -53.95
198.6555 -53.5
198.6888 -53.5
198.7183 -53.5
198.7516 -53.5
198.7844 -53.5
198.8177 -53.5
198.8464 -53.5
198.8756 -53.5
198.9051 -53.3
198.9362 -53.3
198.968 -53.3
198.9996 -53.3
199.0309 -53.3
199.0636 -53.3
199.0932 -53.3
199.1252 -53.3
199.1543 -53.3
199.1827 -53.3
199.2118 -53.3
199.2436 -53.3
199.2742 -53.3
199.3075 -53.3
199.337 -53.3
199.3659 -53.3
199.3973 -53.05
199.4278 -53.05
199.4554 -53.05
199.4887 -53.05
199.5171 -53.05
199.5443 -53.05
199.5728 -53.05
199.6061 -53.05
199.637 -52.6
199.6698 -52.6
199.7032 -52.2
199.7306 -51.3
199.7622 -51.3
199.7956 -50
199.8243 -50
199.8563 -48.05
199.8896 -45.85
199.9206 -45.85
199.9539 -43.9
199.9837 -41.9
200.0152 -41.9
200.044 -39.1
200.0726 -36.45
200.1011 -36.45
200.1299 -33.4
200.1591 -33.4
200.1901 -30.1
200.2234 -27.7
200.2568 -27.7
200.2875 -24.2
200.3184 -21.8
200.3477 -21.8
200.3774 -18.1
200.4108 -18.1
200.4396 -13.5
200.4672 -8.5
200.4964 -8.5
200.525 -3.9
200.5583 -3.9
200.5876 2.6
200.6179 8.5
200.6509 8.5
200.6806 12
200.7099 13.5
200.7406 13.5
200.7703 14.4
200.8005 14.4
200.8305 14.6
200.8617 14.6
200.895 14.6
200.9248 14.6
200.9567 14.6
200.9896 14.6
201.0171 14.6
201.0504 14.6
201.0825 14.6
201.1117 14.6
201.1405 14.6
201.1711 14.6
201.1995 14.6
201.2315 14.6
201.2635 14.6
201.2919 14.6
201.3253 14.6
201.3586 14.6
201.3917 14.6
201.4201 14.6
201.4517 14.15
201.4801 14.15
201.5135 13.1
201.5468 11.75
201.5769 11.75
201.6085 10
201.638 10
201.6714 8.95
201.7047 7.6
201.7344 7.6
201.764 6.55
201.7927 5.65
201.8246 5.65
201.856 4.8
201.8863 4.15
201.9159 4.15
201.9445 2.8
201.9739 2.8
202.0072 1.7
202.0374 -0.2
202.0678 -0.2
202.0977 -3.05
202.1256 -3.05
202.1555 -5.85
202.187 -8.05
202.2145 -8.05
202.2461 -10.7
202.2771 -10.7
202.3105 -13.1
202.3384 -14.6
202.3674 -14.6
202.3987 -15.7
202.4321 -16.15
202.4616 -16.15
202.4925 -16.15
202.523 -16.15
202.5533 -16.35
202.5866 -17
202.6152 -17
202.6443 -17.9
202.677 -17.9
202.706 -19
202.7381 -19.4
202.7656 -19.4
202.7976 -19.4
202.8275 -19.4
202.8594 -19.4
202.8899 -19.4
202.921 -19.4
202.9507 -19.4
202.9838 -19.4
203.0125 -19.4
203.0418 -19.4
203.0701 -19.4
203.1034 -19.4
203.1331 -19.4
203.1619 -19.4
203.1908 -19.4
203.2241 -19.4
203.2538 -19.4
203.2831 -19.4
203.3145 -19.4
203.3434 -19.4
203.374 -19.4
203.4025 -19.4
203.4332 -19.4
203.4621 -19.4
203.4924 -19
203.5254 -18.3
203.5554 -18.3
203.5867 -17.45
203.6194 -16.15
203.6525 -16.15
203.6806 -14.4
203.7115 -14.4
203.7424 -12.2
203.7714 -12.2
203.8047 -9.6
203.8362 -7.4
203.8696 -7.4
203.9029 -4.8
203.9314 -2.15
203.9592 -2.15
203.9882 -0.65
204.0164 -0.65
204.0449 1.5
204.0782 2.8
204.1099 2.8
204.1432 5.45
204.1719 7.2
204.2049 7.2
204.2324 8.7
204.2615 8.7
204.2935 10
204.3217 10.9
204.3511 10.9
204.3809 11.35
204.4089 11.35
204.439 11.75
204.4724 12
204.5057 12
204.5366 12.65
204.5667 12.65
204.5962 13.75
204.6296 14.85
204.6629 14.85
204.6938 16.35
204.723 17.9
204.7563 17.9
204.7858 19.85
204.8172 21.15
204.8463 21.15
204.8737 23.15
204.9019 23.15
204.9352 25.1
204.9642 25.1
204.9961 26.65
205.0281 28.6
205.0576 28.6
205.0886 30.1
205.1207 31.2
205.1517 31.2
205.1807 32.5
205.2125 32.5
205.242 32.95
205.2711 32.95
205.2996 32.95
205.3286 32.3
205.3575 32.3
205.3908 31.2
205.4189 30.1
205.4522 30.1
205.4809 28.6
205.5107 28.6
205.5414 27.05
205.5725 25.55
205.6027 25.55
205.632 24.65
205.6654 23.55
205.6955 23.55
205.7276 22.25
205.7609 21.4
205.7906 21.4
205.8203 20.05
205.8491 20.05
205.882 19.2
205.9153 17.9
205.9455 17.9
205.9736 16.6
206.0031 16.6
206.0338 15.25
206.0652 13.95
206.096 13.95
206.1262 11.75
206.1564 9.35
206.1879 9.35
206.2212 7.2
206.2522 7.2
206.2836 4.55
206.3125 1.7
206.3403 1.7
206.3737 -0.65
206.4038 -2.15
206.4371 -2.15
206.4661 -3.45
206.4946 -3.45
206.5224 -5.2
206.5515 -6.3
206.5798 -6.3
206.6132 -7.2
206.6427 -7.2
206.6734 -7.85
206.7045 -8.05
206.7378 -8.05
206.7679 -8.05
206.7957 -8.05
206.8256 -8.05
206.8554 -8.5
206.8842 -8.5
206.9138 -9.15
206.9472 -9.6
206.9805 -9.6
207.0112 -9.6
207.0416 -9.6
207.0697 -9.6
207.0995 -9.15
207.1301 -9.15
207.1604 -8.5
207.1902 -8.5
207.2236 -8.05
207.2569 -7.2
207.2879 -7.2
207.3197 -6.1
207.353 -5
207.3837 -5
207.417 -2.8
207.4458 -0.4
207.4747 -0.4
207.5046 1.95
207.5346 4.35
207.5635 4.35
207.593 7.6
207.6234 7.6
207.6536 10.25
207.6867 12.65
207.7177 12.65
207.7496 14.85
207.7798 14.85
207.8095 16.15
207.839 17.45
207.8678 17.45
207.8969 19.2
207.9263 19.2
207.9549 20.75
207.9824 20.75
208.0129 22.05
208.0462 23.15
208.0753 23.15
208.108 24.45
208.1411 25.75
208.1723 25.75
208.2027 26.85
208.2356 27.7
208.2643 27.7
208.2959 28.15
208.3292 28.8
208.3623 28.8
208.3947 29.05
208.4236 29.05
208.4569 29.45
208.4902 29.45
208.5201 29.45
208.55 29.45
208.582 29.45
208.6139 29.45
208.6472 29.45
208.6791 29.45
208.7124 29.45
208.7423 29.45
208.7754 29.45
208.8076 29.45
208.8356 29.45
208.8647 29.45
208.8978 29.25
208.9256 29.25
208.959 29.25
208.9923 28.8
209.0201 28.35
209.0527 28.35
209.0822 27.95
209.1137 27.95
209.1425 27.3
209.1716 27.05
209.2049 27.05
209.2329 26.85
209.2616 26.85
209.2939 26.85
209.3262 26.85
209.3561 26.85
209.3859 26.85
209.4178 26.85
209.4483 26.85
209.4771 26.65
209.5073 26.65
209.5367 26.4
209.5643 26.2
209.5938 26.2
209.623 26.2
209.6517 26.2
209.6803 26.2
209.7103 26.2
209.7405 26.2
209.7727 26.2
209.8023 26.2
209.8297 26.2
209.8589 26.2
209.8887 26.2
209.9175 26.2
209.9509 26.2
209.9842 26.2
210.0128 26.4
210.046 26.4
210.0749 26.4
210.1031 26.4
210.1324 26.4
210.162 26.4
210.1902 26.4
210.2194 26.4
210.2486 26.4
210.2769 26.4
210.3076 26.4
210.341 26.4
210.3697 26.65
210.4028 26.65
210.4345 26.65
210.4658 26.65
210.4992 26.65
210.5325 26.65
210.5623 26.65
210.591 26.65
210.6212 26.65
210.6507 26.65
210.6794 26.65
210.7128 26.65
210.7392 26.65
210.7679 26.65
210.7981 26.65
210.8314 26.65
210.8602 26.65
210.8903 26.65
210.9231 26.65
210.9565 26.65
210.9867 26.65
211.0171 26.65
211.0482 26.65
211.0816 26.65
211.1145 26.65
211.1476 26.65
211.1787 26.65
211.212 26.65
211.2451 26.65
211.2742 26.65
211.3019 26.65
211.3338 26.65
211.3652 26.65
211.3955 26.65
211.4261 26.65
211.4556 26.65
211.4835 26.65
211.5131 26.65
211.5446 26.65
211.5759 26.65
211.6089 26.65
211.6397 26.65
211.6695 26.65
211.6989 26.65
211.7322 26.65
211.7614 26.65
211.7927 26.65
211.8234 26.65
211.8528 26.65
211.883 26.65
211.915 26.65
211.9473 26.65
211.9806 26.65
212.0114 26.65
212.0417 26.65
212.0736 26.65
212.104 26.65
212.133 26.65
212.164 26.65
212.194 26.85
212.2213 26.85
212.2502 26.85
212.2836 27.3
212.3169 27.3
212.3461 27.5
212.377 27.5
212.4056 27.7
212.4341 27.95
212.4641 27.95
212.4964 27.95
212.5276 27.95
212.5606 27.95
212.5928 27.95
212.6261 27.95
212.6588 27.95
212.6875 27.95
212.7165 27.95
212.7471 27.95
212.7758 27.95
212.804 27.95
212.8334 28.15
212.8613 28.15
212.8941 28.35
212.9274 28.6
212.9574 28.6
212.9889 29.05
213.0193 29.45
213.0478 29.45
213.0794 30.1
213.1103 30.1
213.1396 31.2
213.1719 32.5
213.205 32.5
213.2367 33.6
213.2699 34.5
213.3032 34.5
213.3305 34.95
213.3616 34.95
213.3949 35.6
213.4256 36
213.4553 36
213.4869 36.45
213.5154 36.9
213.5449 36.9
213.5783 37.35
213.6114 37.35
213.6423 38
213.6725 38.4
213.7025 38.4
213.7342 38.85
213.7632 39.1
213.7965 39.1
213.8258 39.5
213.8564 39.5
213.8897 39.95
213.9192 40.15
213.9479 40.15
213.976 40.4
214.0046 40.6
214.0335 40.6
214.0614 40.6
214.0933 40.6
214.1266 40.6
214.1599 40.6
214.19 40.6
214.2233 40.6
214.2513 40.6
214.2831 40.6
214.3144 40.6
214.3466 40.6
214.38 40.6
214.4133 40.6
214.4407 40.6
214.4741 40.6
214.5052 40.6
214.5341 40.6
214.5674 40.8
214.6005 41.05
214.6296 41.05
214.659 41.5
214.6893 41.5
214.7226 42.15
214.7527 42.35
214.7825 43
214.8106 43
214.8419 43.45
214.8726 43.45
214.9057 43.9
214.9391 44.1
214.9683 44.1
214.9969 44.1
215.0302 44.1
215.0601 44.1
215.0934 44.1
215.1236 44.1
215.1545 44.1
215.1878 44.55
215.2175 44.55
215.2468 44.75
215.2793 45.4
215.3104 45.4
215.3391 45.85
215.3716 45.85
215.4021 46.05
215.4354 46.5
215.4669 46.5
215.4956 46.5
215.5289 46.5
215.5569 46.5
215.5859 46.5
215.6192 46.5
215.6526 46.5
215.6812 46.5
215.7104 46.5
215.7383 46.5
215.7717 46.5
215.801 46.5
215.8295 46.5
215.8621 46.5
215.8954 46.7
215.9241 46.7
215.9561 46.7
215.9876 46.95
216.0179 46.95
216.0512 46.95
216.0806 47.15
216.114 47.15
216.1473 47.15
216.1806 47.15
216.2121 46.95
216.2438 46.95
216.2755 46.5
216.3038 45.65
216.3329 45.65
216.364 44.75
216.3935 44.75
216.4259 43.45
216.4564 42.15
216.4897 42.15
216.5178 41.05
216.5496 41.05
216.5801 39.1
216.6116 37.35
216.6415 37.35
216.6707 35.6
216.7037 32.95
216.7339 32.95
216.764 29.9
216.796 29.9
216.8258 26.85
216.8539 23.35
216.8836 23.35
216.9126 20.75
216.946 20.75
216.9779 19
217.0067 18.3
217.036 18.3
217.065 17
217.095 17
217.1282 16.35
217.1615 15.5
217.1931 15.5
217.2264 14.85
217.2552 14.15
217.2844 14.15
217.3138 13.75
217.3439 12.45
217.3729 12.45
217.4032 11.35
217.4318 11.35
217.4605 10.25
217.4938 8.7
217.5245 8.7
217.5553 7.4
217.5855 7.4
217.6167 5.85
217.646 4.55
217.6794 4.55
217.7124 3.7
217.7431 2.4
217.7764 2.4
217.8079 1.95
217.8375 1.95
217.8649 1.5
217.8943 1.5
217.9234 1.5
217.9567 1.95
217.9856 1.95
218.0166 2.6
218.0449 3.05
218.0783 3.05
218.109 4.35
218.139 5
218.1722 5
218.2049 5.2
218.2358 5.2
218.2692 5.2
218.3006 5.2
218.3302 5.45
218.3636 5.45
218.394 6.1
218.4247 6.1
218.455 6.95
218.4847 7.4
218.5137 7.4
218.5462 8.05
218.5796 9.15
218.6112 9.15
218.6445 9.6
218.6732 10.25
218.7066 10.25
218.7365 10.45
218.7673 10.45
218.7974 10.45
218.8286 10.45
218.8619 10.45
218.8928 10.7
218.9243 11.1
218.954 11.1
218.9855 11.55
219.018 11.55
219.0477 12
219.079 12.2
219.1123 12.2
219.1456 12.65
219.1765 13.5
219.2098 13.5
219.2394 14.4
219.2723 15.25
219.3045 15.25
219.3378 15.7
219.3674 15.7
219.3978 16.35
219.431 16.6
219.4593 16.6
219.4882 16.6
219.5211 16.6
219.5492 16.6
219.5825 16.8
219.6159 16.8
219.6451 17.25
219.6756 17.45
219.7043 17.45
219.7376 17.65
219.7686 17.9
219.7983 17.9
219.8266 18.1
219.8553 18.1
219.8886 18.1
219.9171 18.1
219.9469 18.1
219.9803 18.1
220.0098 18.1
220.0432 18.1
220.0739 18.1
220.1022 18.1
220.1318 18.1
220.1615 18.1
220.1939 18.1
220.2236 18.1
220.2543 18.1
220.2849 18.1
220.3155 18.1
220.3442 18.1
220.3776 18.1
220.4075 18.1
220.4383 18.1
220.4716 18.1
220.5017 18.1
220.5325 18.1
220.5618 18.1
220.5916 18.1
220.621 18.1
220.649 18.1
220.6776 18.1
220.7108 18.1
220.7441 18.1
220.7772 18.1
220.8053 18.1
220.8365 18.1
220.8692 18.1
220.898 18.1
220.9294 18.1
220.9593 18.1
220.9918 18.1
221.0203 18.1
221.0537 18.1
221.0823 18.1
221.1154 18.1
221.1438 18.1
221.1725 18.1
221.2037 18.1
221.2343 18.1
221.2653 18.1
221.2933 18.1
221.3233 18.1
221.3552 18.1
221.3877 18.1
221.4178 18.1
221.4489 18.1
221.478 18.1
221.5084 18.1
221.5387 18.1
221.5663 18.1
221.5965 18.1
221.6262 18.1
221.6558 18.1
221.6859 18.1
221.7192 18.1
221.7479 17.65
221.7812 17.65
221.8101 17
221.8434 15.9
221.8767 15.9
221.9101 14.6
221.9409 13.1
221.9729 13.1
222.0063 11.75
222.0396 10.45
222.0686 10.45
222.0991 9.35
222.1293 9.35
222.1582 8.3
222.1883 7.4
222.2188 7.4
222.2493 6.55
222.2811 5.85
222.3106 5.85
222.3395 5
222.3726 5
222.4009 4.35
222.4342 3.45
222.4665 3.45
222.4944 2.4
222.527 2.4
222.5603 0.85
222.592 -0.4
222.6253 -0.4
222.6543 -1.7
222.6876 -2.6
222.7185 -2.6
222.7513 -3.25
222.7793 -3.45
222.8095 -3.45
222.8387 -3.45
222.868 -3.45
222.8962 -3.45
222.9256 -3.45
222.9542 -3.45
222.9875 -3.45
223.0206 -3.45
223.0539 -3.45
223.0856 -3.45
223.1153 -3.45
223.1465 -3.45
223.1767 -3.45
223.207 -3.45
223.2371 -3.25
223.2671 -3.25
223.2961 -2.8
223.3291 -2.4
223.3624 -2.4
223.3909 -1.7
223.4184 -1.7
223.4467 -1.5
223.4801 -1.5
223.509 -1.5
223.5423 -1.5
223.5715 -1.5
223.6002 -1.5
223.629 -1.5
223.6583 -1.5
223.6863 -1.5
223.7157 -1.5
223.746 -1.5
223.7744 -1.5
223.8055 -1.5
223.8376 -1.5
223.8662 -1.5
223.8995 -1.3
223.929 -0.85
223.9623 -0.85
223.9956 -0.65
224.0252 -0.65
224.0536 -0.65
224.0826 -0.4
224.1152 -0.2
224.1443 -0.2
224.1774 -0.2
224.2102 -0.2
224.24 0
224.2726 0.4
224.3013 0.4
224.3308 0.65
224.3604 0.65
224.3898 0.85
224.4187 1.3
224.4491 1.3
224.4784 1.5
224.5083 1.5
224.5414 1.95
224.572 2.15
224.6035 2.15
224.633 2.4
224.663 2.6
224.6925 2.6
224.7222 2.6
224.7539 2.6
224.7841 2.6
224.8155 2.6
224.8458 2.6
224.8736 2.6
224.9028 2.6
224.9337 2.8
224.9619 3.05
224.9921 3.05
225.0255 3.05
225.0558 3.05
225.0853 3.25
225.1155 3.25
225.1462 3.25
225.1787 3.25
225.2078 3.25
225.2402 3.25
225.2696 3.25
225.3029 3.25
225.3317 3.25
225.3629 3.25
225.3942 3.25
225.4252 3.25
225.4559 3.25
225.4856 3.25
225.5165 3.25
225.5479 3.25
225.5767 3.25
225.6046 3.25
225.6334 3.25
225.6667 3.25
225.6941 3.25
225.7236 3.25
225.7532 3.25
225.7865 3.25
225.8184 3.25
225.8485 3.25
225.8814 3.25
225.9107 3.25
225.9401 3.25
225.9716 3.25
226.0027 3.25
226.0357 3.25
226.0676 3.25
226.0972 3.25
226.1266 3.25
226.1546 3.25
226.1846 3.25
226.2145 3.25
226.2442 3.25
226.2732 3.25
226.3033 3.25
226.3337 3.25
226.3636 3.25
226.3959 3.25
226.4256 3.25
226.4568 3.25
226.4883 3.25
226.5217 3.25
226.551 3.25
226.5804 3.25
226.6108 3.25
226.6401 3.25
226.6727 3.25
226.7033 3.25
226.7342 3.25
226.7659 3.25
226.7955 3.25
226.8288 3.25
226.8614 3.25
226.8887 3.25
226.9207 3.25
226.9518 3.25
226.982 3.25
227.0153 3.25
227.0448 3.25
227.074 3.25
227.1059 3.25
227.1352 3.25
227.1642 3.25
227.1976 3.25
227.2274 3.25
227.2601 3.25
227.2918 3.25
227.3223 3.25
227.3557 3.25
227.3881 3.25
227.4214 3.25
227.4532 3.25
227.4839 3.25
227.5126 3.25
227.5436 3.25
227.5733 3.25
227.6057 3.25
227.639 3.25
227.6695 3.25
227.7028 3.25
227.7328 3.25
227.7642 3.25
227.7958 3.25
227.8249 3.25
227.8546 3.25
227.8844 3.25
227.9178 3.25
227.9458 3.25
227.977 3.25
228.0103 3.25
228.0404 3.25
228.0715 3.25
228.1011 3.25
228.132 3.25
228.1607 3.25
228.1927 3.25
228.2229 3.25
228.2522 3.25
228.2816 3.25
228.3129 3.25
228.3433 3.25
228.3716 3.25
228.4007 3.25
228.4296 3.25
228.4629 3.25
228.4915 3.25
228.5248 3.25
228.5536 3.25
228.5869 3.25
228.6171 3.25
228.6491 3.25
228.6786 3.25
228.7119 3.25
228.7416 3.25
228.7721 3.25
228.8054 3.25
228.8376 3.25
228.8709 3.25
228.8997 3.25
228.9288 3.25
228.9596 3.25
228.993 3.25
229.0263 3.25
229.0553 3.25
229.086 3.25
229.116 3.25
229.1451 3.25
229.1752 3.25
229.2086 3.25
229.2417 3.25
229.2698 3.25
229.3004 3.25
229.329 3.25
229.358 3.25
229.3913 3.25
229.4213 3.25
229.4514 3.25
229.4801 3.25
229.5135 3.25
229.5434 3.25
229.5759 3.25
229.6086 3.25
229.6419 2.8
229.6743 1.95
229.7068 1.95
229.7383 1.05
229.7714 1.05
229.8047 1.05
229.836 1.05
229.8675 1.05
229.8978 1.05
229.9278 1.05
229.9574 1.05
229.9859 1.05
230.0193 1.05
230.0466 1.05
230.0766 1.05
230.1066 1.05
230.135 1.05
230.1683 1.05
230.2017 1.05
230.235 1.05
230.264 1.05
230.2929 1.05
230.3218 1.05
230.3523 1.05
230.3856 1.05
230.414 1.05
230.4429 1.05
230.4762 1.05
230.5047 1.05
230.5335 1.05
230.5635 1.05
230.5932 1.05
230.6266 1.05
230.6566 1.05
230.6855 1.05
230.7164 1.05
230.7498 1.05
230.7782 1.05
230.8077 1.05
230.837 1.05
230.8648 1.05
230.8977 1.05
230.927 1.05
230.9604 1.05
230.9898 1.05
231.0193 1.05
231.0509 1.05
231.0829 1.05
231.1133 1.05
231.1417 1.05
231.1705 1.05
231.1996 1.05
231.2329 1.05
231.2626 1.05
231.294 1.05
231.3236 1.05
231.3538 1.05
231.3835 1.05
231.4159 1.05
231.4492 1.05
231.4779 1.05
231.5112 1.05
231.5446 1.05
231.5737 1.05
231.6035 1.05
231.6368 1.05
231.6701 1.05
231.7016 1.05
231.7329 1.05
231.7656 1.05
231.7971 1.05
231.8268 1.05
231.8601 1.05
231.8889 1.05
231.9176 1.05
231.9509 1.05
231.979 1.05
232.0079 1.05
232.038 1.05
232.0668 1.05
232.0958 1.05
232.1264 1.05
232.1557 1.05
232.1864 1.05
232.2198 1.05
232.2531 1.05
232.2824 1.05
232.3118 1.05
232.3393 1.05
232.368 1.05
232.3969 1.05
232.4268 1.05
232.4559 1.05
232.4841 1.05
232.5175 1.05
232.5461 1.05
232.5764 1.05
232.6051 1.05
232.6329 1.05
232.6631 1.05
232.6929 1.05
232.7249 1.05
232.7536 1.05
232.7858 1.05
232.8159 1.05
232.8493 1.05
232.8788 1.05
232.912 1.05
232.942 1.05
232.9697 1.05
233.003 1.05
233.0364 1.05
233.0642 1.05
233.0942 1.05
233.1276 1.05
233.1553 1.05
233.1843 1.05
233.2177 1.05
233.251 1.05
233.2804 1.05
233.3138 1.05
233.344 1.05
233.3758 1.05
233.4076 1.05
233.4351 1.05
233.4655 1.05
233.4988 1.05
233.5312 1.05
233.5645 1.05
233.5975 1.05
233.6306 1.05
233.6623 1.05
233.6956 1.05
233.7246 1.05
233.758 1.05
233.7897 1.05
233.823 1.05
233.852 1.05
233.8824 1.05
233.9157 1.05
233.9448 1.05
233.977 1.05
234.0051 1.05
234.035 1.05
234.0683 1.05
234.0959 1.05
234.1249 1.05
234.1548 1.05
234.1881 1.05
234.2175 1.05
234.2508 1.05
234.2778 1.05
234.3112 1.05
234.3427 1.05
234.3721 1.05
234.4045 1.05
234.4373 1.05
234.4677 1.05
234.5011 1.05
234.5344 1.05
234.5632 1.05
234.5927 1.05
234.622 1.05
234.6502 1.05
234.6804 1.05
234.709 1.05
234.7423 1.05
234.7729 1.05
234.8028 1.05
234.8332 1.05
234.8637 1.05
234.8955 1.05
234.9288 1.05
234.96 1.05
234.9896 1.05
235.0195 1.05
235.052 1.05
235.0814 1.05
235.1147 1.05
235.144 1.05
235.1731 1.05
235.2007 1.05
235.2298 1.05
235.2591 1.05
235.2891 1.05
235.3196 1.05
235.353 1.05
235.3849 1.05
235.4163 1.05
235.4482 1.05
235.4781 1.05
235.5114 1.05
235.5412 1.05
235.5738 1.05
235.6029 1.05
235.6335 1.05
235.6631 1.05
235.6927 1.05
235.7217 1.05
235.7512 1.05
235.7846 1.05
235.8179 1.05
235.8512 1.05
235.8819 1.05
235.9118 1.05
235.9404 1.05
235.971 1.05
236.0018 1.05
236.0349 1.05
236.0641 1.05
236.0933 1.05
236.1216 1.05
236.1513 1.05
236.1817 1.05
236.215 1.05
236.2484 1.05
236.277 1.05
236.3048 1.05
236.3349 1.05
236.3682 1.05
236.4016 1.05
236.4319 1.05
236.4647 1.05
236.4966 1.05
236.5298 1.05
236.5614 1.05
236.5936 1.05
236.624 1.05
236.6553 1.05
236.6838 1.05
236.7172 1.05
236.7463 1.05
236.7742 1.05
236.8053 1.05
236.8386 1.05
236.8719 1.05
236.9016 1.05
236.935 1.05
236.9667 1.05
237 1.05
237.0296 1.05
237.0583 1.05
237.0874 1.05
237.1163 1.05
237.1442 1.05
237.1768 1.05
237.2101 1.05
237.2381 1.05
237.2682 1.05
237.2979 1.05
237.3312 1.05
237.3629 1.05
237.3962 1.05
237.4296 1.05
237.4605 1.05
237.4895 1.05
237.52 1.05
237.5533 1.05
237.5853 1.05
237.6151 1.05
237.646 1.05
237.6766 1.05
237.7073 1.05
237.7406 1.05
237.7718 1.05
237.8028 1.05
237.8361 1.05
237.8673 1.05
237.8954 1.05
237.9272 1.05
237.9605 1.05
237.9897 1.05
238.023 1.05
238.0531 1.05
238.0864 1.05
238.1182 1.05
238.1495 1.05
238.1773 1.05
238.2083 1.05
238.2371 1.05
238.268 1.05
238.2984 1.05
238.3311 1.05
238.3618 1.05
238.3943 1.05
238.4231 1.05
238.4536 1.05
238.4843 1.05
238.5157 1.05
238.545 1.05
238.5778 1.05
238.6082 1.05
238.641 1.05
238.6736 1.05
238.7027 1.05
238.731 1.05
238.7623 1.05
238.7915 1.05
238.8206 1.05
238.8516 1.05
238.8829 1.05
238.9115 1.05
238.9449 1.05
238.9782 1.05
239.0116 1.05
239.042 1.05
239.0754 1.05
239.1072 1.05
239.1405 1.05
239.1739 1.05
239.2072 1.05
239.2377 1.05
239.2708 1.05
239.3041 1.05
239.3341 1.05
239.3674 1.05
239.3997 1.05
239.4331 1.05
239.4664 1.05
239.4997 1.05
239.5276 1.05
239.5563 1.05
239.5869 1.05
239.6202 1.05
239.6489 1.05
239.6823 1.05
239.7156 1.05
239.7452 1.05
239.7785 1.05
239.8119 1.05
239.8452 1.05
239.8748 1.05
239.9082 1.05
239.9415 1.05
239.9708 1.05
239.9994 1.05
240.0323 1.05
240.0609 1.05
240.0943 1.05
240.1225 1.05
240.1549 1.05
240.187 1.05
240.2158 1.05
240.2491 1.05
240.2813 1.05
240.3114 1.05
240.3447 1.05
240.3757 1.05
240.409 1.05
240.4423 1.05
240.4743 1.05
240.5072 1.05
240.5373 1.05
240.5707 1.05
240.6026 1.05
240.6351 1.05
240.6668 1.05
240.6995 1.05
240.7328 1.05
240.763 1.05
240.7924 1.05
240.8219 1.05
240.8534 1.05
240.8867 1.05
240.9151 1.05
240.9468 1.05
240.9764 1.05
241.0054 1.05
241.0387 1.05
241.0681 1.05
241.0966 1.05
241.1263 1.05
241.1556 1.05
241.1889 1.05
241.2222 1.05
241.2556 1.05
241.2833 1.05
241.3137 1.05
241.3471 1.05
241.3766 1.05
241.4065 1.05
241.4362 1.05
241.4696 1.05
241.5029 1.05
241.535 1.05
241.5631 1.05
241.5965 1.05
241.6278 1.05
241.6611 1.05
241.6945 1.05
241.7278 1.05
241.7572 1.05
241.7899 1.05
241.8232 1.05
241.8519 1.05
241.8845 1.05
241.9155 1.05
241.9488 1.05
241.9821 1.05
242.0129 1.05
242.0415 1.05
242.0739 1.05
242.1036 1.05
242.1369 1.05
242.1703 1.05
242.1993 1.05
242.2274 1.05
242.2569 1.05
242.2903 1.05
242.3236 1.05
242.3569 1.05
242.3873 1.05
242.4156 1.05
242.449 1.05
242.4823 1.05
242.5136 1.05
242.543 1.05
242.5763 1.05
242.6096 1.05
242.6394 1.05
242.6709 1.05
242.7019 1.05
242.7344 1.05
242.7678 1.05
242.8011 1.05
242.8293 1.05
242.8626 1.05
242.8951 1.05
242.9284 1.05
242.9591 1.05
242.9921 1.05
243.0214 1.05
243.0517 1.05
243.0851 1.05
243.113 1.05
243.1463 1.05
243.1788 1.05
243.2113 1.05
243.2446 1.05
243.2749 1.05
243.3046 1.05
243.3349 1.05
243.3632 1.05
243.3965 1.05
243.4298 1.05
243.4596 1.05
243.4929 1.05
243.5244 1.05
243.5577 1.05
243.5896 1.05
243.6229 1.05
243.6516 1.05
243.6829 1.05
243.7162 1.05
243.7479 1.05
243.7806 1.05
243.8139 1.05
243.8427 1.05
243.876 1.05
243.9093 1.05
243.9426 1.05
243.9747 1.05
244.0053 1.05
244.0386 1.05
244.0719 1.05
244.1007 1.05
244.1285 1.05
244.1604 1.05
244.1937 1.05
244.2235 1.05
244.2561 1.05
244.2894 1.05
244.3174 1.05
244.3508 1.05
244.3797 1.05
244.4131 1.05
244.4463 1.05
244.4796 1.05
244.513 1.05
244.5427 1.05
244.5735 1.05
244.6023 1.05
244.6353 1.05
244.6686 1.05
244.7019 1.05
244.7296 1.05
244.7584 1.05
244.787 1.05
244.8204 1.05
244.8518 1.05
244.8802 1.05
244.9098 1.05
244.9425 1.05
244.9758 1.05
245.0059 1.05
245.0356 1.05
245.0642 1.05
245.0945 1.05
245.1278 1.05
245.1611 1.05
245.194 1.05
245.2235 1.05
245.2537 1.05
245.287 1.05
245.3154 1.05
245.3487 1.05
245.3775 1.05
245.4108 1.05
245.4441 1.05
245.4774 1.05
245.5098 1.05
245.5395 1.05
245.5727 1.05
245.606 1.05
245.6394 1.05
245.6686 1.05
245.6981 1.05
245.7265 1.05
245.7599 1.05
245.7897 1.05
245.8223 1.05
245.855 1.05
245.8883 1.05
245.9217 1.05
245.955 1.05
245.9883 1.05
246.0173 1.05
246.049 1.05
246.0823 1.05
246.1157 1.05
246.147 1.05
246.18 1.05
246.2133 1.05
246.2466 1.05
246.2758 1.05
246.3048 1.05
246.3381 1.05
246.371 1.05
246.4044 1.05
246.434 1.05
246.462 1.05
246.4898 1.05
246.5187 1.05
246.552 1.05
246.5798 1.05
246.6085 1.05
246.6373 1.05
246.6656 1.05
246.699 1.05
246.728 1.05
246.7613 1.05
246.7895 1.05
246.8228 1.05
246.8561 1.05
246.8895 1.05
246.9182 1.05
246.9516 1.05
246.9828 1.05
247.0161 1.05
247.0436 1.05
247.0769 1.05
247.1059 1.05
247.1383 1.05
247.1716 1.05
247.2002 1.05
247.2331 1.05
247.2618 1.05
247.2914 1.05
247.3247 1.05
247.358 1.05
247.3914 1.05
247.4247 1.05
247.4563 1.05
247.4896 1.05
247.5186 1.05
247.5494 1.05
247.5827 1.05
247.6116 1.05
247.6449 1.05
247.6738 1.05
247.7049 1.05
247.735 1.05
247.7683 1.05
247.8016 1.05
247.8303 1.05
247.8629 1.05
247.8923 1.05
247.9245 1.05
247.9578 1.05
247.9912 1.05
248.0199 1.05
248.0501 1.05
248.0801 1.05
248.1134 1.05
248.1429 1.05
248.1762 1.05
248.209 1.05
248.2423 1.05
248.2757 1.05
248.3071 1.05
248.3398 1.05
248.3716 1.05
248.403 1.05
248.4363 1.05
248.4672 1.05
248.4994 1.05
248.5303 1.05
248.5588 1.05
248.5921 1.05
248.6221 1.05
248.6538 1.05
248.6871 1.05
248.7163 1.05
248.7496 1.05
248.7792 1.05
248.81 1.05
248.8404 1.05
248.8697 1.05
248.903 1.05
248.9361 1.05
248.9646 1.05
248.9928 1.05
249.0235 1.05
249.0569 1.05
249.0867 1.05
249.1184 1.05
249.1477 1.05
249.181 1.05
249.2144 1.05
249.2477 1.05
249.2791 1.05
249.3124 1.05
249.3437 1.05
249.3771 1.05
249.41 1.05
249.4418 1.05
249.4697 1.05
249.5021 1.05
249.5354 1.05
249.5634 1.05
249.5948 1.05
249.6248 1.05
249.6556 1.05
249.6889 1.05
249.7222 1.05
249.7507 1.05
249.784 1.05
249.8138 1.05
249.8471 1.05
249.8803 1.05
249.9096 1.05
249.9398 1.05
249.9732 1.05
250.0065 1.05
250.0344 1.05
250.0641 1.05
250.0955 1.05
250.1247 1.05
250.1581 1.05
250.1914 1.05
250.2194 1.05
250.2495 1.05
250.2828 1.05
250.3161 1.05
250.3448 1.05
250.3765 1.05
250.4054 1.05
250.4387 1.05
250.4721 1.05
250.5049 1.05
250.5343 1.05
250.5638 1.05
250.5936 1.05
250.627 1.05
250.6569 1.05
250.6854 1.05
250.7185 1.05
250.7477 1.05
250.7811 1.05
250.8103 1.05
250.8383 1.05
250.8678 1.05
250.9012 1.05
250.9345 1.05
250.9666 1.05
250.9946 1.05
251.026 1.05
251.0584 1.05
251.0918 1.05
251.1251 1.05
251.1584 1.05
251.1914 1.05
251.2248 1.05
251.2581 1.05
251.2914 1.05
251.3208 1.05
251.3503 1.05
251.3807 1.05
251.414 1.05
251.4474 1.05
251.4754 1.05
251.5056 1.05
251.5356 1.05
251.5689 1.05
251.6004 1.05
251.6337 1.05
251.662 1.05
251.6953 1.05
251.7287 1.05
251.7596 1.05
251.7915 1.05
251.8201 1.05
251.8525 1.05
251.8858 1.05
251.9192 1.05
251.9482 1.05
251.9767 1.05
252.0099 1.05
252.0432 1.05
252.0754 1.05
252.1054 1.05
252.1386 1.05
252.1677 1.05
252.201 1.05
252.2335 1.05
252.2616 1.05
252.2895 1.05
252.322 1.05
252.3553 1.05
252.3864 1.05
252.4175 1.05
252.4508 1.05
252.4801 1.05
252.5134 1.05
252.542 1.05
252.5719 1.05
252.5995 1.05
252.632 1.05
252.6653 1.05
252.6951 1.05
252.7255 1.05
252.7547 1.05
252.7865 1.05
252.8199 1.05
252.8532 1.05
252.8818 1.05
252.9152 1.05
252.9466 1.05
252.9799 1.05
253.0132 1.05
253.0423 1.05
253.071 1.05
253.1035 1.05
253.1369 1.05
253.1688 1.05
253.1976 1.05
253.2256 1.05
253.2547 1.05
253.2881 1.05
253.3173 1.05
253.3469 1.05
253.3762 1.05
253.4064 1.05
253.4397 1.05
253.4685 1.05
253.4969 1.05
253.5246 1.05
253.5546 1.05
253.588 1.05
253.6213 1.05
253.6518 1.05
253.6852 1.05
253.7155 1.05
253.7489 1.05
253.7783 1.05
253.8098 1.05
253.8391 1.05
253.8698 1.05
253.9031 1.05
253.9316 1.05
253.9647 1.05
253.9946 1.05
254.0279 1.05
254.0612 1.05
254.0909 1.05
254.1242 1.05
254.1575 1.05
254.1892 1.05
254.2225 1.05
254.2523 1.05
254.2852 1.05
254.3185 1.05
254.3519 1.05
254.3852 1.05
254.4162 1.05
254.4454 1.05
254.4742 1.05
254.504 1.05
254.5373 1.05
254.5706 1.05
254.6006 1.05
254.6307 1.05
254.6601 1.05
254.6934 1.05
254.724 1.05
254.7573 1.05
254.7873 1.05
254.8207 1.05
254.854 1.05
254.8873 1.05
254.9174 1.05
254.95 1.05
254.9834 1.05
255.0167 1.05
255.0446 1.05
255.0778 1.05
255.1112 1.05
255.1394 1.05
255.1727 1.05
255.2061 1.05
255.2394 1.05
255.2727 1.05
255.3061 1.05
255.3394 1.05
255.3727 1.05
255.4061 1.05
255.4394 1.05
255.4727 1.05
255.5061 1.05
255.5394 1.05
255.5727 1.05
255.6061 1.05
255.6394 1.05
255.6727 1.05
255.7061 1.05
255.7394 1.05
255.7727 1.05
255.8061 1.05
255.8394 1.05
255.8725 1.05
255.9059 1.05
255.937 1.05
255.9703 1.05
256.0036 1.05
256.0334 1.05
256.0664 1.05
256.0991 1.05
256.1273 1.05
256.1607 1.05
256.1898 1.05
256.2191 1.05
256.251 1.05
256.2833 1.05
256.3166 1.05
256.3499 1.05
256.3833 1.05
256.4166 1.05
256.4499 1.05
256.4796 1.05
256.5094 1.05
256.5428 1.05
256.5761 1.05
256.6047 1.05
256.638 1.05
256.6714 1.05
256.7007 1.05
256.734 1.05
256.7627 1.05
256.7913 1.05
256.8212 1.05
256.8545 1.05
256.8878 1.05
256.9178 1.05
256.9484 1.05
256.9817 1.05
257.0111 1.05
257.0444 1.05
257.0726 1.05
257.1055 1.05
257.137 1.05
257.1661 1.05
257.1995 1.05
257.2291 1.05
257.2625 1.05
257.2932 1.05
257.3251 1.05
257.3584 1.05
257.3889 1.05
257.4222 1.05
257.4523 1.05
257.4857 1.05
